Time (s), Current (A), Voltage (V)
0.000000	5.083213E-10	0.000000
0.118713	3.575964E-8	0.001000
0.235870	6.808208E-8	0.002000
0.351878	1.003261E-7	0.003000
0.472025	1.325451E-7	0.004000
0.591451	1.647598E-7	0.005000
0.709846	1.971276E-7	0.006000
0.827856	2.294292E-7	0.007000
0.945862	2.616475E-7	0.008000
1.063869	2.938560E-7	0.009000
1.181876	3.261203E-7	0.010000
1.299884	3.584960E-7	0.011000
1.417892	3.907304E-7	0.012000
1.535899	4.229214E-7	0.013000
1.653906	4.550658E-7	0.014000
1.772913	4.874738E-7	0.015000
1.890921	5.196392E-7	0.016000
2.008928	5.518909E-7	0.017000
2.146160	5.841941E-7	0.018000
2.264735	6.161715E-7	0.019000
2.383742	6.486070E-7	0.020000
2.501750	6.807639E-7	0.021000
2.620757	7.129690E-7	0.022000
2.739764	7.451584E-7	0.023000
2.858772	7.773172E-7	0.024000
2.974936	8.094974E-7	0.025000
3.095533	8.417530E-7	0.026000
3.213112	8.741531E-7	0.027000
3.330119	9.063498E-7	0.028000
3.448127	9.382917E-7	0.029000
3.567135	9.706469E-7	0.030000
3.687142	1.002542E-6	0.031000
3.806150	1.034728E-6	0.032000
3.924158	1.066207E-6	0.033000
4.166172	1.097975E-6	0.034000
4.284180	1.130656E-6	0.035000
4.403187	1.162486E-6	0.036000
4.522195	1.194843E-6	0.037000
4.641663	1.226588E-6	0.038000
4.759523	1.259166E-6	0.039000
4.878716	1.291454E-6	0.040000
4.996723	1.322951E-6	0.041000
5.114730	1.355760E-6	0.042000
5.232738	1.387450E-6	0.043000
5.349452	1.419893E-6	0.044000
5.466977	1.451779E-6	0.045000
5.586452	1.484141E-6	0.046000
5.704459	1.516100E-6	0.047000
5.823466	1.548352E-6	0.048000
5.941474	1.580024E-6	0.049000
7.124597	1.611739E-6	0.050000
7.242556	1.547227E-6	0.048000
7.360563	1.482525E-6	0.046000
7.479570	1.417746E-6	0.044000
7.598578	1.353744E-6	0.042000
7.716586	1.289083E-6	0.040000
7.834593	1.224562E-6	0.038000
7.951601	1.160669E-6	0.036000
8.071607	1.095990E-6	0.034000
8.189615	1.031462E-6	0.032000
8.307623	9.678347E-7	0.030000
8.495635	9.034522E-7	0.028000
8.613651	8.396351E-7	0.026000
8.731659	7.747083E-7	0.024000
8.850657	7.102554E-7	0.022000
8.967665	6.462337E-7	0.020000
9.086721	5.817124E-7	0.018000
9.204014	5.173039E-7	0.016000
9.321021	4.530632E-7	0.014000
9.440028	3.887908E-7	0.012000
9.559036	3.244980E-7	0.010000
9.678043	2.602945E-7	0.008000
9.797050	1.960878E-7	0.006000
9.914059	1.317360E-7	0.004000
10.032066	6.759814E-8	0.002000
10.152073	3.304931E-9	0.000000
10.270081	6.376288E-8	-0.002000
10.389087	1.278690E-7	-0.004000
10.507096	1.919507E-7	-0.006000
10.624104	2.562143E-7	-0.008000
10.742111	3.205573E-7	-0.010000
10.861118	3.845535E-7	-0.012000
10.980126	4.486205E-7	-0.014000
11.099444	5.126896E-7	-0.016000
11.218902	5.770038E-7	-0.018000
11.336412	6.410527E-7	-0.020000
11.455419	7.052310E-7	-0.022000
11.573426	7.691279E-7	-0.024000
11.691438	8.330379E-7	-0.026000
11.810441	8.972551E-7	-0.028000
11.928449	9.618745E-7	-0.030000
12.047456	1.025621E-6	-0.032000
12.166463	1.088504E-6	-0.034000
12.408480	1.152389E-6	-0.036000
12.526486	1.216322E-6	-0.038000
12.645494	1.280056E-6	-0.040000
12.763502	1.344217E-6	-0.042000
12.881509	1.408171E-6	-0.044000
12.998516	1.472240E-6	-0.046000
13.116523	1.535995E-6	-0.048000
0.000000	1.599472E-6	-0.050000
0.117959	1.536022E-6	-0.048000
0.236966	1.471420E-6	-0.046000
0.355974	1.406969E-6	-0.044000
0.472981	1.342965E-6	-0.042000
0.590989	1.278866E-6	-0.040000
0.710995	1.214744E-6	-0.038000
0.830003	1.151286E-6	-0.036000
0.948011	1.087021E-6	-0.034000
1.067019	1.022565E-6	-0.032000
1.185027	9.599935E-7	-0.030000
1.371037	8.958533E-7	-0.028000
1.489046	8.316330E-7	-0.026000
1.607052	7.677416E-7	-0.024000
1.725060	7.036230E-7	-0.022000
1.843068	6.395771E-7	-0.020000
1.961075	5.756173E-7	-0.018000
2.079190	5.115249E-7	-0.016000
2.196971	4.475462E-7	-0.014000
2.316388	3.834876E-7	-0.012000
2.434394	3.197175E-7	-0.010000
2.554403	2.554941E-7	-0.008000
2.671411	1.914627E-7	-0.006000
2.789418	1.275557E-7	-0.004000
2.908425	6.353069E-8	-0.002000
3.027432	4.788289E-10	0.000000
3.145440	6.741883E-8	0.002000
3.263448	1.312971E-7	0.004000
3.382455	1.953530E-7	0.006000
3.501462	2.592604E-7	0.008000
3.619470	3.231052E-7	0.010000
3.737477	3.871668E-7	0.012000
3.856484	4.511521E-7	0.014000
3.975492	5.150010E-7	0.016000
4.095500	5.789045E-7	0.018000
4.214507	6.429136E-7	0.020000
4.332514	7.069297E-7	0.022000
4.451522	7.706850E-7	0.024000
4.569530	8.349560E-7	0.026000
4.687537	8.990530E-7	0.028000
4.804545	9.624966E-7	0.030000
4.923552	1.026793E-6	0.032000
5.043559	1.089518E-6	0.034000
5.285578	1.153687E-6	0.036000
5.404583	1.217498E-6	0.038000
5.522591	1.281464E-6	0.040000
5.640598	1.345244E-6	0.042000
5.759605	1.409146E-6	0.044000
5.877613	1.473475E-6	0.046000
5.994619	1.537285E-6	0.048000
6.113626	1.601014E-6	0.050000
6.230634	1.537017E-6	0.048000
6.349642	1.473438E-6	0.046000
6.468649	1.408928E-6	0.044000
6.587657	1.345185E-6	0.042000
6.704666	1.281135E-6	0.040000
6.822672	1.216727E-6	0.038000
6.941679	1.152945E-6	0.036000
7.058686	1.088788E-6	0.034000
7.177695	1.024853E-6	0.032000
7.296701	9.616442E-7	0.030000
7.482713	8.975711E-7	0.028000
7.602722	8.338606E-7	0.026000
7.719733	7.700678E-7	0.024000
7.838740	7.059773E-7	0.022000
7.958744	6.422244E-7	0.020000
8.076754	5.780998E-7	0.018000
8.195759	5.142090E-7	0.016000
8.314765	4.503111E-7	0.014000
8.433774	3.864920E-7	0.012000
8.552267	3.226550E-7	0.010000
8.670850	2.587136E-7	0.008000
8.788330	1.949203E-7	0.006000
8.905797	1.310291E-7	0.004000
9.025449	6.723211E-8	0.002000
9.142456	3.291333E-9	0.000000
9.260463	6.340866E-8	-0.002000
9.379471	1.271636E-7	-0.004000
9.499478	1.908718E-7	-0.006000
9.616487	2.547574E-7	-0.008000
9.736022	3.187456E-7	-0.010000
9.853930	3.823960E-7	-0.012000
9.971487	4.462024E-7	-0.014000
10.091495	5.100095E-7	-0.016000
10.210502	5.736445E-7	-0.018000
10.328509	6.375527E-7	-0.020000
10.446517	7.012276E-7	-0.022000
10.563524	7.649854E-7	-0.024000
10.681532	8.287080E-7	-0.026000
10.802057	8.922750E-7	-0.028000
10.918574	9.562830E-7	-0.030000
11.037961	1.020316E-6	-0.032000
11.155971	1.082221E-6	-0.034000
11.398984	1.145746E-6	-0.036000
11.518991	1.209881E-6	-0.038000
11.635999	1.273424E-6	-0.040000
11.755006	1.336980E-6	-0.042000
11.873013	1.400777E-6	-0.044000
11.991022	1.464465E-6	-0.046000
12.110028	1.528421E-6	-0.048000
12.227037	1.593122E-6	-0.050000
12.346043	1.529168E-6	-0.048000
12.464051	1.465341E-6	-0.046000
12.581059	1.400830E-6	-0.044000
12.701066	1.337377E-6	-0.042000
12.818073	1.273719E-6	-0.040000
12.936081	1.209716E-6	-0.038000
13.056088	1.146185E-6	-0.036000
13.175096	1.082660E-6	-0.034000
13.293103	1.018801E-6	-0.032000
13.410111	9.561252E-7	-0.030000
13.598123	8.920464E-7	-0.028000
13.717131	8.281830E-7	-0.026000
13.836138	7.645598E-7	-0.024000
13.954150	7.009137E-7	-0.022000
14.071153	6.371648E-7	-0.020000
14.189160	5.732132E-7	-0.018000
14.307167	5.094054E-7	-0.016000
14.426175	4.457066E-7	-0.014000
14.546183	3.819854E-7	-0.012000
14.665190	3.182623E-7	-0.010000
14.782754	2.543509E-7	-0.008000
14.900395	1.906124E-7	-0.006000
15.018320	1.269034E-7	-0.004000
15.136328	6.320909E-8	-0.002000
15.256335	5.085214E-10	0.000000
15.375343	6.712952E-8	0.002000
15.493351	1.308068E-7	0.004000
15.611358	1.946018E-7	0.006000
15.730365	2.583587E-7	0.008000
15.849372	3.221005E-7	0.010000
15.968380	3.858445E-7	0.012000
16.087387	4.495843E-7	0.014000
16.206395	5.132958E-7	0.016000
16.325402	5.771187E-7	0.018000
16.443409	6.409714E-7	0.020000
16.560418	7.044866E-7	0.022000
16.678425	7.680565E-7	0.024000
16.796432	8.319033E-7	0.026000
16.913442	8.956131E-7	0.028000
17.030447	9.591890E-7	0.030000
17.148455	1.023284E-6	0.032000
17.266462	1.086243E-6	0.034000
17.508477	1.150392E-6	0.036000
17.625485	1.213468E-6	0.038000
17.743495	1.277343E-6	0.040000
17.862499	1.340713E-6	0.042000
17.981506	1.404324E-6	0.044000
18.100514	1.468516E-6	0.046000
18.219522	1.532805E-6	0.048000
18.338530	1.596788E-6	0.050000
18.455537	1.531939E-6	0.048000
18.573545	1.467969E-6	0.046000
18.692552	1.404202E-6	0.044000
18.811559	1.340235E-6	0.042000
18.929566	1.276469E-6	0.040000
19.048574	1.212954E-6	0.038000
19.167582	1.149445E-6	0.036000
19.286591	1.085249E-6	0.034000
19.404598	1.021488E-6	0.032000
19.522604	9.588005E-7	0.030000
19.709616	8.951049E-7	0.028000
19.828624	8.309993E-7	0.026000
19.947139	7.673374E-7	0.024000
20.065514	7.040344E-7	0.022000
20.182520	6.399604E-7	0.020000
20.301527	5.761366E-7	0.018000
20.420535	5.125397E-7	0.016000
20.540543	4.489639E-7	0.014000
20.658550	3.852649E-7	0.012000
20.776557	3.215688E-7	0.010000
20.895566	2.580104E-7	0.008000
21.013575	1.943937E-7	0.006000
21.131585	1.306106E-7	0.004000
21.251588	6.700658E-8	0.002000
21.369595	3.303983E-9	0.000000
21.487602	6.318014E-8	-0.002000
21.605609	1.267450E-7	-0.004000
21.723618	1.902735E-7	-0.006000
21.843625	2.540586E-7	-0.008000
21.961635	3.178600E-7	-0.010000
22.080640	3.813909E-7	-0.012000
22.198647	4.447951E-7	-0.014000
22.316655	5.082702E-7	-0.016000
22.434663	5.720428E-7	-0.018000
22.553669	6.357981E-7	-0.020000
22.672677	6.994990E-7	-0.022000
22.792229	7.630458E-7	-0.024000
22.909882	8.262608E-7	-0.026000
23.027401	8.898595E-7	-0.028000
23.147401	9.536540E-7	-0.030000
23.265408	1.017126E-6	-0.032000
23.384416	1.079688E-6	-0.034000
23.626431	1.143010E-6	-0.036000
23.743439	1.206399E-6	-0.038000
23.862446	1.270204E-6	-0.040000
23.981453	1.333209E-6	-0.042000
24.099462	1.396987E-6	-0.044000
24.217469	1.460542E-6	-0.046000
24.335476	1.523799E-6	-0.048000
24.452483	1.587319E-6	-0.050000
24.570490	1.523901E-6	-0.048000
24.688498	1.460842E-6	-0.046000
24.809924	1.397248E-6	-0.044000
24.927810	1.333228E-6	-0.042000
25.046458	1.269460E-6	-0.040000
25.164465	1.205948E-6	-0.038000
25.283472	1.142720E-6	-0.036000
25.401480	1.078892E-6	-0.034000
25.520487	1.015275E-6	-0.032000
25.638494	9.530877E-7	-0.030000
25.823511	8.892762E-7	-0.028000
25.941514	8.257128E-7	-0.026000
26.058521	7.622837E-7	-0.024000
26.175528	6.986742E-7	-0.022000
26.291536	6.350461E-7	-0.020000
26.411547	5.712670E-7	-0.018000
26.529551	5.078459E-7	-0.016000
26.647558	4.443635E-7	-0.014000
26.766566	3.807390E-7	-0.012000
26.884574	3.172018E-7	-0.010000
27.002582	2.536172E-7	-0.008000
27.121589	1.900619E-7	-0.006000
27.240114	1.586753E-6	-0.050000
27.482783	1.586949E-6	-0.050000
27.599791	1.586593E-6	-0.050000
27.719799	1.586358E-6	-0.050000
27.838807	1.586235E-6	-0.050000
27.957820	1.586586E-6	-0.050000
28.074821	1.587520E-6	-0.050000
28.192828	1.586385E-6	-0.050000
28.311835	1.586898E-6	-0.050000
28.429842	1.586246E-6	-0.050000
28.548851	1.585777E-6	-0.050000
28.667858	1.586567E-6	-0.050000
28.786866	1.585949E-6	-0.050000
28.905873	1.585936E-6	-0.050000
29.023880	1.585597E-6	-0.050000
29.141889	1.585806E-6	-0.050000
29.259896	1.586111E-6	-0.050000
29.379902	1.585672E-6	-0.050000
29.496911	1.585510E-6	-0.050000
29.614918	1.585555E-6	-0.050000
29.734925	1.585557E-6	-0.050000
29.852933	1.585297E-6	-0.050000
29.970942	1.585167E-6	-0.050000
30.088948	1.584719E-6	-0.050000
30.207955	1.585001E-6	-0.050000
30.328135	1.585411E-6	-0.050000
30.445623	1.585187E-6	-0.050000
30.564105	1.585135E-6	-0.050000
30.682113	1.585151E-6	-0.050000
30.802120	1.585769E-6	-0.050000
30.919130	1.584942E-6	-0.050000
31.038135	1.584909E-6	-0.050000
31.157145	1.585271E-6	-0.050000
31.274149	1.585284E-6	-0.050000
31.393157	1.585683E-6	-0.050000
31.513164	1.585348E-6	-0.050000
31.631173	1.584322E-6	-0.050000
31.748180	1.584294E-6	-0.050000
31.867187	1.584431E-6	-0.050000
31.985194	1.584552E-6	-0.050000
32.105202	1.583980E-6	-0.050000
32.223209	1.583698E-6	-0.050000
32.341216	1.584129E-6	-0.050000
32.459224	1.583969E-6	-0.050000
32.576231	1.583723E-6	-0.050000
32.694239	1.583666E-6	-0.050000
32.814246	1.584260E-6	-0.050000
0.000000	4.700311E-10	0.000000
0.118506	6.362684E-7	0.020000
0.236857	1.268946E-6	0.040000
0.478907	1.902445E-6	0.060000
0.595909	2.538110E-6	0.080000
0.713916	3.174949E-6	0.100000
0.830924	3.813632E-6	0.120000
0.948931	4.453681E-6	0.140000
1.065939	5.096667E-6	0.160000
1.184946	5.743701E-6	0.180000
1.301955	6.390266E-6	0.200000
1.418961	7.040853E-6	0.220000
1.536969	7.694161E-6	0.240000
1.655976	8.353089E-6	0.260000
1.775983	9.010662E-6	0.280000
1.893049	9.672361E-6	0.300000
2.011543	1.033987E-5	0.320000
2.129004	1.100698E-5	0.340000
2.366008	1.167595E-5	0.360000
2.484015	1.234719E-5	0.380000
2.602023	1.302061E-5	0.400000
2.720030	1.370070E-5	0.420000
2.837039	1.438131E-5	0.440000
2.954046	1.506342E-5	0.460000
3.072053	1.574329E-5	0.480000
3.190061	1.642822E-5	0.500000
3.307068	1.711927E-5	0.520000
3.424075	1.781196E-5	0.540000
3.544083	1.850321E-5	0.560000
3.661090	1.920567E-5	0.580000
3.778099	1.989293E-5	0.600000
3.897612	2.059503E-5	0.620000
4.014145	2.130687E-5	0.640000
4.131615	2.201128E-5	0.660000
4.247621	2.271338E-5	0.680000
4.366629	2.342733E-5	0.700000
4.484635	2.413404E-5	0.720000
4.600643	2.485376E-5	0.740000
4.718650	2.555452E-5	0.760000
4.835658	2.627248E-5	0.780000
4.953665	2.699302E-5	0.800000
5.070673	2.771567E-5	0.820000
5.188680	2.844475E-5	0.840000
5.305688	2.916774E-5	0.860000
5.422695	2.989662E-5	0.880000
5.540703	3.063001E-5	0.900000
5.657711	3.137244E-5	0.920000
5.775717	3.209724E-5	0.940000
5.891256	3.282933E-5	0.960000
6.008810	3.357239E-5	0.980000
7.190491	3.430609E-5	1.000000
7.307449	3.282886E-5	0.960000
7.423744	3.135347E-5	0.920000
7.541803	2.987968E-5	0.880000
7.657272	2.843501E-5	0.840000
7.775280	2.698449E-5	0.800000
7.892346	2.554525E-5	0.760000
8.010819	2.412381E-5	0.720000
8.126066	2.270636E-5	0.680000
8.244073	2.128586E-5	0.640000
8.361080	1.989089E-5	0.600000
8.479484	1.849268E-5	0.560000
8.596841	1.711183E-5	0.520000
8.714370	1.573203E-5	0.480000
8.832378	1.436946E-5	0.440000
8.951385	1.301723E-5	0.400000
9.069392	1.166813E-5	0.360000
9.188400	1.033193E-5	0.320000
9.307408	9.009697E-6	0.280000
9.489419	7.693708E-6	0.240000
9.607427	6.389782E-6	0.200000
9.725434	5.095653E-6	0.160000
9.843441	3.811898E-6	0.120000
9.961449	2.536178E-6	0.080000
10.080456	1.267999E-6	0.040000
10.199463	3.162717E-9	0.000000
10.385476	1.263085E-6	-0.040000
10.628007	2.528759E-6	-0.080000
10.746527	3.797335E-6	-0.120000
10.864611	5.073961E-6	-0.160000
10.982340	6.357042E-6	-0.200000
11.100850	7.651065E-6	-0.240000
11.218618	8.952848E-6	-0.280000
11.336201	1.026851E-5	-0.320000
11.454552	1.159094E-5	-0.360000
11.691250	1.292793E-5	-0.400000
11.810777	1.428218E-5	-0.440000
11.928784	1.564924E-5	-0.480000
12.045792	1.703946E-5	-0.520000
12.163800	1.845843E-5	-0.560000
12.280807	1.991643E-5	-0.600000
12.398814	2.141487E-5	-0.640000
12.514329	2.296072E-5	-0.680000
12.631336	2.455738E-5	-0.720000
12.748344	2.621960E-5	-0.760000
12.863350	2.794230E-5	-0.800000
12.980359	2.971938E-5	-0.840000
13.097366	3.155037E-5	-0.880000
13.214373	3.343619E-5	-0.920000
13.332381	3.536544E-5	-0.960000
0.000000	3.763112E-5	-1.000000
0.117694	3.570211E-5	-0.960000
0.233702	3.381031E-5	-0.920000
0.351709	3.194826E-5	-0.880000
0.467739	3.011844E-5	-0.840000
0.586302	2.833222E-5	-0.800000
0.702703	2.659483E-5	-0.760000
0.820709	2.489934E-5	-0.720000
0.937003	2.325032E-5	-0.680000
1.056269	2.165347E-5	-0.640000
1.170743	2.010253E-5	-0.600000
1.290749	1.860078E-5	-0.560000
1.407919	1.714011E-5	-0.520000
1.525927	1.571636E-5	-0.480000
1.642941	1.432723E-5	-0.440000
1.760941	1.295732E-5	-0.400000
1.877949	1.160829E-5	-0.360000
1.995955	1.027577E-5	-0.320000
2.112964	8.956023E-6	-0.280000
2.295974	7.652217E-6	-0.240000
2.412982	6.361287E-6	-0.200000
2.530991	5.076150E-6	-0.160000
2.648998	3.797692E-6	-0.120000
2.767005	2.527855E-6	-0.080000
2.884013	1.262705E-6	-0.040000
3.001020	6.438886E-10	0.000000
3.188032	1.267607E-6	0.040000
3.431046	2.535816E-6	0.080000
3.550055	3.811054E-6	0.120000
3.668062	5.093004E-6	0.160000
3.786069	6.386133E-6	0.200000
3.904077	7.692553E-6	0.240000
4.021085	9.003042E-6	0.280000
4.138092	1.032953E-5	0.320000
4.256098	1.166492E-5	0.360000
4.492423	1.300959E-5	0.400000
4.611048	1.437137E-5	0.440000
4.729055	1.573026E-5	0.480000
4.846062	1.710160E-5	0.520000
4.963069	1.849560E-5	0.560000
5.079466	1.987738E-5	0.600000
5.197105	2.128558E-5	0.640000
5.314507	2.270261E-5	0.680000
5.432514	2.413159E-5	0.720000
5.548522	2.555578E-5	0.760000
5.666529	2.699179E-5	0.800000
5.783537	2.843876E-5	0.840000
5.901544	2.989893E-5	0.880000
6.017926	3.135824E-5	0.920000
6.135650	3.282078E-5	0.960000
6.254115	3.430950E-5	1.000000
6.372122	3.281360E-5	0.960000
6.489130	3.133794E-5	0.920000
6.606138	2.986911E-5	0.880000
6.725146	2.841069E-5	0.840000
6.843155	2.696614E-5	0.800000
6.959160	2.553241E-5	0.760000
7.077167	2.410110E-5	0.720000
7.196175	2.267552E-5	0.680000
7.312230	2.127486E-5	0.640000
7.430077	1.986933E-5	0.600000
7.545848	1.848084E-5	0.560000
7.664301	1.709518E-5	0.520000
7.781308	1.571391E-5	0.480000
7.898842	1.436228E-5	0.440000
8.015595	1.300270E-5	0.400000
8.134060	1.165795E-5	0.360000
8.252067	1.032300E-5	0.320000
8.369076	9.002661E-6	0.280000
8.551089	7.686471E-6	0.240000
8.668095	6.385776E-6	0.200000
8.785101	5.090150E-6	0.160000
8.903109	3.808361E-6	0.120000
9.022117	2.534266E-6	0.080000
9.140123	1.266570E-6	0.040000
9.260131	3.192009E-9	0.000000
9.446142	1.261550E-6	-0.040000
9.689157	2.524846E-6	-0.080000
9.806166	3.796248E-6	-0.120000
9.924173	5.068922E-6	-0.160000
10.040693	6.350608E-6	-0.200000
10.159213	7.645752E-6	-0.240000
10.275777	8.947383E-6	-0.280000
10.396785	1.025896E-5	-0.320000
10.513792	1.158753E-5	-0.360000
10.750806	1.292040E-5	-0.400000
10.869814	1.427543E-5	-0.440000
10.986823	1.564621E-5	-0.480000
11.104829	1.704005E-5	-0.520000
11.222837	1.847196E-5	-0.560000
11.339844	1.993208E-5	-0.600000
11.457851	2.144089E-5	-0.640000
11.575859	2.299802E-5	-0.680000
11.692866	2.461306E-5	-0.720000
11.809873	2.629049E-5	-0.760000
11.926882	2.803645E-5	-0.800000
12.044888	2.981826E-5	-0.840000
12.161896	3.166252E-5	-0.880000
12.279904	3.355464E-5	-0.920000
12.401505	3.549025E-5	-0.960000
12.519190	3.746769E-5	-1.000000
12.636649	3.557010E-5	-0.960000
12.754657	3.368715E-5	-0.920000
12.872664	3.184690E-5	-0.880000
12.988671	3.003036E-5	-0.840000
13.107679	2.825382E-5	-0.800000
13.224687	2.652474E-5	-0.760000
13.341693	2.483103E-5	-0.720000
13.459702	2.319491E-5	-0.680000
13.577709	2.161024E-5	-0.640000
13.695717	2.007656E-5	-0.600000
13.812723	1.857268E-5	-0.560000
13.931731	1.711832E-5	-0.520000
14.048738	1.569821E-5	-0.480000
14.166746	1.431211E-5	-0.440000
14.284753	1.294132E-5	-0.400000
14.401760	1.160503E-5	-0.360000
14.518767	1.026687E-5	-0.320000
14.635776	8.949815E-6	-0.280000
14.816788	7.646755E-6	-0.240000
14.933794	6.354867E-6	-0.200000
15.052808	5.070634E-6	-0.160000
15.170809	3.794884E-6	-0.120000
15.288817	2.526266E-6	-0.080000
15.407824	1.261433E-6	-0.040000
15.528280	5.760544E-10	0.000000
15.713805	1.266855E-6	0.040000
15.956819	2.535179E-6	0.080000
16.074827	3.809093E-6	0.120000
16.192833	5.090289E-6	0.160000
16.311841	6.384072E-6	0.200000
16.429849	7.685339E-6	0.240000
16.548856	9.000541E-6	0.280000
16.666864	1.032253E-5	0.320000
16.783872	1.165709E-5	0.360000
17.021886	1.300421E-5	0.400000
17.140893	1.436107E-5	0.440000
17.258902	1.572717E-5	0.480000
17.375909	1.709125E-5	0.520000
17.493463	1.848240E-5	0.560000
17.610027	1.987116E-5	0.600000
17.726629	2.127116E-5	0.640000
17.843637	2.268594E-5	0.680000
17.962644	2.411142E-5	0.720000
18.080651	2.553880E-5	0.760000
18.196659	2.697688E-5	0.800000
18.314666	2.841649E-5	0.840000
18.433282	2.988702E-5	0.880000
18.550034	3.133020E-5	0.920000
18.666586	3.279901E-5	0.960000
18.784594	3.428708E-5	1.000000
18.902601	3.279506E-5	0.960000
19.019609	3.132778E-5	0.920000
19.136617	2.985830E-5	0.880000
19.254624	2.840918E-5	0.840000
19.371631	2.696128E-5	0.800000
19.488638	2.552578E-5	0.760000
19.606647	2.409637E-5	0.720000
19.723653	2.268201E-5	0.680000
19.841661	2.127233E-5	0.640000
19.958667	1.986786E-5	0.600000
20.076675	1.847432E-5	0.560000
20.192683	1.709024E-5	0.520000
20.310689	1.571884E-5	0.480000
20.428698	1.435599E-5	0.440000
20.546705	1.299395E-5	0.400000
20.663713	1.165638E-5	0.360000
20.780719	1.031784E-5	0.320000
20.897728	8.994485E-6	0.280000
21.079739	7.683792E-6	0.240000
21.196746	6.381649E-6	0.200000
21.313754	5.089997E-6	0.160000
21.432761	3.806191E-6	0.120000
21.550769	2.533462E-6	0.080000
21.668776	1.266182E-6	0.040000
21.786783	3.222654E-9	0.000000
21.974056	1.261641E-6	-0.040000
22.215860	2.523301E-6	-0.080000
22.334865	3.790805E-6	-0.120000
22.453874	5.066756E-6	-0.160000
22.571609	6.348372E-6	-0.200000
22.690299	7.636485E-6	-0.240000
22.808306	8.944064E-6	-0.280000
22.925314	1.025193E-5	-0.320000
23.044323	1.157618E-5	-0.360000
23.281336	1.291201E-5	-0.400000
23.400863	1.426493E-5	-0.440000
23.519407	1.563259E-5	-0.480000
23.635926	1.702746E-5	-0.520000
23.752936	1.845362E-5	-0.560000
23.868942	1.991892E-5	-0.600000
23.985949	2.143370E-5	-0.640000
24.104958	2.298870E-5	-0.680000
24.221964	2.460543E-5	-0.720000
24.339972	2.628570E-5	-0.760000
24.456038	2.801475E-5	-0.800000
24.571860	2.979644E-5	-0.840000
24.689836	3.164213E-5	-0.880000
24.805843	3.353221E-5	-0.920000
24.923851	3.547934E-5	-0.960000
25.041858	3.743917E-5	-1.000000
25.158865	3.553882E-5	-0.960000
25.276874	3.366347E-5	-0.920000
25.393157	3.181625E-5	-0.880000
25.509686	3.000904E-5	-0.840000
25.627426	2.822724E-5	-0.800000
25.744433	2.650176E-5	-0.760000
25.862440	2.482428E-5	-0.720000
25.979448	2.318175E-5	-0.680000
26.096456	2.160146E-5	-0.640000
26.214466	2.005882E-5	-0.600000
26.331470	1.856966E-5	-0.560000
26.448478	1.710934E-5	-0.520000
26.565484	1.568833E-5	-0.480000
26.684494	1.430309E-5	-0.440000
26.802500	1.294055E-5	-0.400000
26.920507	1.159605E-5	-0.360000
27.037515	1.026246E-5	-0.320000
27.155526	8.946547E-6	-0.280000
27.337533	7.641655E-6	-0.240000
27.456541	6.351312E-6	-0.200000
27.575550	5.069199E-6	-0.160000
27.692556	3.792836E-6	-0.120000
27.808563	2.524648E-6	-0.080000
27.926571	1.261230E-6	-0.040000
28.042578	5.513112E-10	0.000000
28.228590	1.266582E-6	0.040000
28.469605	2.535034E-6	0.080000
28.586613	3.810949E-6	0.120000
28.704621	5.089767E-6	0.160000
28.823628	6.381040E-6	0.200000
28.941635	7.685019E-6	0.240000
29.058643	8.998449E-6	0.280000
29.175650	1.032131E-5	0.320000
29.293657	1.165365E-5	0.360000
29.535492	1.300049E-5	0.400000
29.652993	1.435514E-5	0.440000
29.769997	1.571464E-5	0.480000
29.887004	1.708644E-5	0.520000
30.004023	1.847119E-5	0.560000
30.122020	1.986657E-5	0.600000
30.238027	2.127161E-5	0.640000
30.356034	2.269199E-5	0.680000
30.474041	2.410957E-5	0.720000
30.591048	2.552646E-5	0.760000
30.708056	2.696056E-5	0.800000
30.824064	2.840653E-5	0.840000
30.942070	2.987397E-5	0.880000
31.060080	3.133866E-5	0.920000
31.177086	3.279951E-5	0.960000
31.295093	3.428385E-5	1.000000
31.411134	3.279265E-5	0.960000
31.528917	3.131769E-5	0.920000
31.645922	2.985058E-5	0.880000
31.762930	2.839719E-5	0.840000
31.879938	2.694560E-5	0.800000
31.997946	2.550744E-5	0.760000
32.114953	2.408151E-5	0.720000
32.230960	2.266572E-5	0.680000
32.348968	2.125824E-5	0.640000
32.464975	1.985438E-5	0.600000
32.581983	1.846445E-5	0.560000
32.700990	1.708490E-5	0.520000
32.816998	1.571635E-5	0.480000
32.935005	1.434902E-5	0.440000
33.053012	1.299612E-5	0.400000
33.171019	1.164891E-5	0.360000
33.288028	1.031469E-5	0.320000
33.404761	8.992587E-6	0.280000
33.587329	7.682441E-6	0.240000
33.705339	6.379144E-6	0.200000
33.825347	5.087712E-6	0.160000
33.942354	3.804087E-6	0.120000
34.061014	2.532436E-6	0.080000
34.178600	1.265713E-6	0.040000
34.297208	3.246395E-9	0.000000
34.486221	1.260966E-6	-0.040000
34.728236	2.523938E-6	-0.080000
34.846244	3.792304E-6	-0.120000
34.963251	5.064526E-6	-0.160000
35.080773	6.348439E-6	-0.200000
35.199512	7.639192E-6	-0.240000
35.315999	8.940700E-6	-0.280000
35.434006	1.025298E-5	-0.320000
35.553311	1.157704E-5	-0.360000
35.788941	1.291022E-5	-0.400000
35.906947	1.426616E-5	-0.440000
36.023955	1.563275E-5	-0.480000
36.141966	1.702724E-5	-0.520000
36.258973	1.845655E-5	-0.560000
36.375978	1.992298E-5	-0.600000
36.492985	2.142113E-5	-0.640000
36.609992	2.298074E-5	-0.680000
36.727000	2.459648E-5	-0.720000
36.846006	2.627049E-5	-0.760000
36.963015	2.800227E-5	-0.800000
37.080022	2.978966E-5	-0.840000
37.198030	3.163758E-5	-0.880000
37.316037	3.351954E-5	-0.920000
37.432045	3.546559E-5	-0.960000
37.550052	3.742861E-5	-1.000000
37.668059	3.552328E-5	-0.960000
37.786067	3.365168E-5	-0.920000
37.904074	3.180853E-5	-0.880000
38.021081	2.999868E-5	-0.840000
38.139090	2.822516E-5	-0.800000
38.257096	2.649758E-5	-0.760000
38.374104	2.480476E-5	-0.720000
38.491111	2.317498E-5	-0.680000
38.607119	2.158951E-5	-0.640000
38.724126	2.005662E-5	-0.600000
38.842134	1.856664E-5	-0.560000
38.958141	1.710168E-5	-0.520000
39.076148	1.568751E-5	-0.480000
39.193156	1.429737E-5	-0.440000
39.311163	1.293476E-5	-0.400000
39.431692	1.158895E-5	-0.360000
39.551342	1.026000E-5	-0.320000
39.668818	8.945889E-6	-0.280000
39.850829	7.640562E-6	-0.240000
39.967837	6.350298E-6	-0.200000
40.085844	5.067380E-6	-0.160000
40.203851	3.792682E-6	-0.120000
40.322859	2.524236E-6	-0.080000
40.440866	1.260794E-6	-0.040000
40.558874	5.967999E-10	0.000000
40.744886	1.266458E-6	0.040000
40.986917	2.533572E-6	0.080000
41.103923	3.807644E-6	0.120000
41.222931	5.090009E-6	0.160000
41.340939	6.381172E-6	0.200000
41.458946	7.684368E-6	0.240000
41.575953	8.999201E-6	0.280000
41.693960	1.031882E-5	0.320000
41.811968	1.164879E-5	0.360000
42.049984	1.299256E-5	0.400000
42.167990	1.435439E-5	0.440000
42.284997	1.571381E-5	0.480000
42.401006	1.708612E-5	0.520000
42.519013	1.846649E-5	0.560000
42.637019	1.986565E-5	0.600000
42.754027	2.126439E-5	0.640000
42.871036	2.267340E-5	0.680000
42.988041	2.409547E-5	0.720000
43.106050	2.552349E-5	0.760000
43.222057	2.695584E-5	0.800000
43.341065	2.839879E-5	0.840000
43.458072	2.983941E-5	0.880000
43.575079	3.131792E-5	0.920000
43.693087	3.278963E-5	0.960000
43.809094	3.426870E-5	1.000000
43.927102	3.277601E-5	0.960000
44.044110	3.129836E-5	0.920000
44.161117	2.983768E-5	0.880000
44.280123	2.838392E-5	0.840000
44.398131	2.693585E-5	0.800000
44.515139	2.550574E-5	0.760000
44.634150	2.408115E-5	0.720000
44.751153	2.265851E-5	0.680000
44.868162	2.125207E-5	0.640000
44.987168	1.984892E-5	0.600000
45.104176	1.845798E-5	0.560000
45.221184	1.708031E-5	0.520000
45.338191	1.570745E-5	0.480000
45.456199	1.434349E-5	0.440000
45.573206	1.299265E-5	0.400000
45.691213	1.164630E-5	0.360000
45.809220	1.031573E-5	0.320000
45.926228	8.992535E-6	0.280000
46.107239	7.678837E-6	0.240000
46.225247	6.376772E-6	0.200000
46.343255	5.085543E-6	0.160000
46.461262	3.805030E-6	0.120000
46.579269	2.531171E-6	0.080000
46.697277	1.265053E-6	0.040000
46.815284	3.192707E-9	0.000000
47.001296	1.260143E-6	-0.040000
47.245311	2.522180E-6	-0.080000
47.362377	3.790036E-6	-0.120000
47.481746	5.064592E-6	-0.160000
47.600266	6.346934E-6	-0.200000
47.716830	7.638829E-6	-0.240000
47.836496	8.938402E-6	-0.280000
47.952921	1.025317E-5	-0.320000
48.071929	1.157425E-5	-0.360000
48.308945	1.290929E-5	-0.400000
48.430498	1.425895E-5	-0.440000
48.547037	1.563153E-5	-0.480000
48.663491	1.702485E-5	-0.520000
48.780498	1.844997E-5	-0.560000
48.898507	1.991203E-5	-0.600000
49.016512	2.141765E-5	-0.640000
49.133520	2.297726E-5	-0.680000
49.249528	2.458694E-5	-0.720000
49.368536	2.626825E-5	-0.760000
49.486542	2.799684E-5	-0.800000
49.604550	2.978491E-5	-0.840000
49.721618	3.161305E-5	-0.880000
49.838101	3.351725E-5	-0.920000
49.956598	3.544365E-5	-0.960000
50.073615	3.741260E-5	-1.000000
50.190621	3.551399E-5	-0.960000
50.307619	3.363812E-5	-0.920000
50.427885	3.180125E-5	-0.880000
50.545785	2.997734E-5	-0.840000
50.662253	2.821589E-5	-0.800000
50.781259	2.647782E-5	-0.760000
50.897797	2.479955E-5	-0.720000
51.015381	2.316710E-5	-0.680000
51.132098	2.158837E-5	-0.640000
51.249105	2.004647E-5	-0.600000
51.368113	1.856043E-5	-0.560000
51.486122	1.710267E-5	-0.520000
51.604128	1.568310E-5	-0.480000
51.722137	1.429634E-5	-0.440000
51.839143	1.293486E-5	-0.400000
51.957150	1.158896E-5	-0.360000
52.075159	1.025758E-5	-0.320000
52.193165	8.941768E-6	-0.280000
52.376177	7.641021E-6	-0.240000
52.496184	6.347045E-6	-0.200000
52.613192	5.064624E-6	-0.160000
52.731199	3.792235E-6	-0.120000
52.849207	2.523887E-6	-0.080000
52.967214	1.260573E-6	-0.040000
53.086222	6.041476E-10	0.000000
53.272233	1.265860E-6	0.040000
53.514250	2.532406E-6	0.080000
53.632257	3.804776E-6	0.120000
53.750264	5.085738E-6	0.160000
53.868271	6.376336E-6	0.200000
53.986279	7.676853E-6	0.240000
54.103474	8.989849E-6	0.280000
54.221011	1.031065E-5	0.320000
54.338018	1.164212E-5	0.360000
54.576033	1.298161E-5	0.400000
54.695041	1.433763E-5	0.440000
54.812048	1.569490E-5	0.480000
54.929055	1.707285E-5	0.520000
55.045063	1.845624E-5	0.560000
55.164071	1.985337E-5	0.600000
55.282078	2.124925E-5	0.640000
55.398086	2.266086E-5	0.680000
55.515093	2.406576E-5	0.720000
55.633100	2.549835E-5	0.760000
55.751109	2.693151E-5	0.800000
55.868114	2.838280E-5	0.840000
55.987123	2.983868E-5	0.880000
56.104130	3.128976E-5	0.920000
56.222137	3.276226E-5	0.960000
56.340145	3.424447E-5	1.000000
56.457153	3.275323E-5	0.960000
56.575160	3.128313E-5	0.920000
56.693166	2.981813E-5	0.880000
56.809175	2.836369E-5	0.840000
56.928183	2.692383E-5	0.800000
57.046190	2.549286E-5	0.760000
57.163197	2.405871E-5	0.720000
57.280204	2.264555E-5	0.680000
57.399211	2.123891E-5	0.640000
57.516218	1.984759E-5	0.600000
57.635226	1.845347E-5	0.560000
57.752234	1.707132E-5	0.520000
57.871242	1.569876E-5	0.480000
57.987249	1.433811E-5	0.440000
58.105257	1.298535E-5	0.400000
58.222264	1.164366E-5	0.360000
58.340271	1.030894E-5	0.320000
58.459279	8.993021E-6	0.280000
58.641290	7.676125E-6	0.240000
58.758297	6.377087E-6	0.200000
58.876306	5.082985E-6	0.160000
58.995313	3.802273E-6	0.120000
59.112319	2.530029E-6	0.080000
59.230328	1.264758E-6	0.040000
59.348334	3.198757E-9	0.000000
59.534347	1.259444E-6	-0.040000
59.777361	2.521751E-6	-0.080000
59.895370	3.787545E-6	-0.120000
60.012377	5.060503E-6	-0.160000
60.130385	6.343768E-6	-0.200000
60.247392	7.632316E-6	-0.240000
60.365399	8.930376E-6	-0.280000
60.482407	1.024276E-5	-0.320000
60.600414	1.156398E-5	-0.360000
60.836430	1.290056E-5	-0.400000
60.953437	1.425589E-5	-0.440000
61.070444	1.562298E-5	-0.480000
61.187451	1.700780E-5	-0.520000
61.305459	1.843449E-5	-0.560000
61.422983	1.990170E-5	-0.600000
61.539392	2.140957E-5	-0.640000
61.655904	2.296389E-5	-0.680000
61.773912	2.458218E-5	-0.720000
61.890918	2.624707E-5	-0.760000
62.007926	2.797841E-5	-0.800000
62.125933	2.976165E-5	-0.840000
62.240941	3.159849E-5	-0.880000
62.358948	3.349593E-5	-0.920000
62.476955	3.541898E-5	-0.960000
62.593964	3.738712E-5	-1.000000
62.709975	3.550954E-5	-0.960000
62.826978	3.363781E-5	-0.920000
62.943985	3.179475E-5	-0.880000
63.061992	2.997302E-5	-0.840000
63.205002	2.820096E-5	-0.800000
63.321009	2.647906E-5	-0.760000
63.438119	2.478649E-5	-0.720000
63.556074	2.314948E-5	-0.680000
63.673647	2.156350E-5	-0.640000
63.790651	2.003647E-5	-0.600000
63.907658	1.853384E-5	-0.560000
64.025665	1.708578E-5	-0.520000
64.142673	1.567559E-5	-0.480000
64.259681	1.428317E-5	-0.440000
64.377687	1.291914E-5	-0.400000
64.495695	1.157890E-5	-0.360000
64.612703	1.024952E-5	-0.320000
64.729723	8.942695E-6	-0.280000
64.911736	7.637736E-6	-0.240000
65.028743	6.345057E-6	-0.200000
65.147750	5.060739E-6	-0.160000
65.265759	3.789281E-6	-0.120000
65.383768	2.522033E-6	-0.080000
65.500773	1.259573E-6	-0.040000
65.618780	6.382892E-10	0.000000
65.804792	1.265376E-6	0.040000
66.045806	2.530667E-6	0.080000
66.162815	3.803313E-6	0.120000
66.279821	5.085653E-6	0.160000
66.396830	6.375135E-6	0.200000
66.514837	7.676339E-6	0.240000
66.631844	8.988484E-6	0.280000
66.749852	1.031078E-5	0.320000
66.867859	1.164460E-5	0.360000
67.103874	1.298703E-5	0.400000
67.222881	1.433928E-5	0.440000
67.341889	1.570116E-5	0.480000
67.459507	1.707341E-5	0.520000
67.575032	1.845443E-5	0.560000
67.693534	1.985212E-5	0.600000
67.810543	2.125188E-5	0.640000
67.926549	2.266996E-5	0.680000
68.044830	2.408057E-5	0.720000
68.161469	2.549910E-5	0.760000
68.278920	2.694368E-5	0.800000
68.396926	2.838754E-5	0.840000
68.514935	2.985350E-5	0.880000
68.631942	3.131692E-5	0.920000
68.749949	3.277733E-5	0.960000
68.866957	3.425941E-5	1.000000
68.984964	3.277422E-5	0.960000
69.101972	3.130141E-5	0.920000
69.218979	2.984412E-5	0.880000
69.336987	2.838099E-5	0.840000
69.455480	2.693861E-5	0.800000
69.571056	2.549663E-5	0.760000
69.689587	2.407471E-5	0.720000
69.807595	2.264432E-5	0.680000
69.923603	2.123777E-5	0.640000
70.041610	1.983883E-5	0.600000
70.159617	1.845048E-5	0.560000
70.277625	1.707012E-5	0.520000
70.393632	1.569679E-5	0.480000
70.512641	1.433644E-5	0.440000
70.630647	1.297900E-5	0.400000
70.748655	1.163925E-5	0.360000
70.865662	1.030714E-5	0.320000
70.983669	8.989613E-6	0.280000
71.165681	7.676005E-6	0.240000
71.283688	6.374727E-6	0.200000
71.400696	5.088142E-6	0.160000
71.518703	3.807154E-6	0.120000
71.638711	2.531400E-6	0.080000
71.757719	1.265761E-6	0.040000
71.874726	3.232598E-9	0.000000
72.061737	1.260924E-6	-0.040000
72.305755	2.524522E-6	-0.080000
72.423761	3.792809E-6	-0.120000
72.542768	5.064920E-6	-0.160000
72.660776	6.347502E-6	-0.200000
72.778783	7.640563E-6	-0.240000
72.896796	8.943397E-6	-0.280000
73.014798	1.025162E-5	-0.320000
73.132805	1.157713E-5	-0.360000
73.368820	1.290866E-5	-0.400000
73.487829	1.426201E-5	-0.440000
73.605835	1.564594E-5	-0.480000
73.722843	1.703315E-5	-0.520000
73.838850	1.844616E-5	-0.560000
73.955858	1.990578E-5	-0.600000
74.071864	2.140987E-5	-0.640000
74.188871	2.296638E-5	-0.680000
74.304880	2.457922E-5	-0.720000
74.420887	2.624886E-5	-0.760000
74.538895	2.798415E-5	-0.800000
74.653902	2.976963E-5	-0.840000
74.772909	3.160481E-5	-0.880000
74.889917	3.349061E-5	-0.920000
75.007923	3.542692E-5	-0.960000
75.125931	3.740219E-5	-1.000000
75.242939	3.550371E-5	-0.960000
75.359946	3.362889E-5	-0.920000
75.477953	3.177636E-5	-0.880000
75.594961	2.996271E-5	-0.840000
75.710968	2.819323E-5	-0.800000
75.830976	2.646775E-5	-0.760000
75.948984	2.479281E-5	-0.720000
76.066990	2.314904E-5	-0.680000
76.183999	2.156945E-5	-0.640000
76.303006	2.003239E-5	-0.600000
76.427014	1.855009E-5	-0.560000
76.543674	1.709575E-5	-0.520000
76.661204	1.567559E-5	-0.480000
76.777221	1.429064E-5	-0.440000
76.896219	1.292506E-5	-0.400000
77.014227	1.157851E-5	-0.360000
77.131234	1.025763E-5	-0.320000
77.248241	8.946769E-6	-0.280000
77.431253	7.642305E-6	-0.240000
77.548260	6.349194E-6	-0.200000
77.665267	5.064712E-6	-0.160000
77.782275	3.789987E-6	-0.120000
77.902282	2.523402E-6	-0.080000
78.020289	1.261302E-6	-0.040000
78.138298	6.629332E-10	0.000000
78.325309	1.265425E-6	0.040000
78.568324	2.532082E-6	0.080000
78.687332	3.805799E-6	0.120000
78.806339	5.090508E-6	0.160000
78.924347	6.380453E-6	0.200000
79.042356	7.686378E-6	0.240000
79.160362	8.997918E-6	0.280000
79.277370	1.032746E-5	0.320000
79.396378	1.165669E-5	0.360000
79.635392	1.300377E-5	0.400000
79.753399	1.435820E-5	0.440000
79.870407	1.571828E-5	0.480000
79.986414	1.709471E-5	0.520000
80.104430	1.845854E-5	0.560000
80.221429	1.989916E-5	0.600000
80.338438	2.129919E-5	0.640000
80.459980	2.270443E-5	0.680000
80.578572	2.413507E-5	0.720000
80.694143	2.556632E-5	0.760000
80.812148	2.700024E-5	0.800000
80.929155	2.845074E-5	0.840000
81.045163	2.987459E-5	0.880000
81.163173	3.137195E-5	0.920000
81.282177	3.282914E-5	0.960000
81.399185	3.431327E-5	1.000000
81.516193	3.284707E-5	0.960000
81.634203	3.137210E-5	0.920000
81.752207	2.989712E-5	0.880000
81.869215	2.842789E-5	0.840000
81.986224	2.697672E-5	0.800000
82.104229	2.553063E-5	0.760000
82.222237	2.412455E-5	0.720000
82.339244	2.269926E-5	0.680000
82.460252	2.128762E-5	0.640000
82.577260	1.990133E-5	0.600000
82.693267	1.850365E-5	0.560000
82.811274	1.711410E-5	0.520000
82.928282	1.574432E-5	0.480000
83.046289	1.437057E-5	0.440000
83.164297	1.301364E-5	0.400000
83.281304	1.166704E-5	0.360000
83.398314	1.033102E-5	0.320000
83.515320	9.004355E-6	0.280000
83.697331	7.691948E-6	0.240000
83.814339	6.390469E-6	0.200000
83.931345	5.092094E-6	0.160000
84.049353	3.806330E-6	0.120000
84.166360	2.532912E-6	0.080000
84.285367	1.266137E-6	0.040000
84.403459	3.180860E-9	0.000000
84.590107	1.260414E-6	-0.040000
84.832642	2.523399E-6	-0.080000
84.950650	3.791104E-6	-0.120000
85.069658	5.065937E-6	-0.160000
85.187665	6.349960E-6	-0.200000
85.305672	7.639294E-6	-0.240000
85.422687	8.945778E-6	-0.280000
85.540687	1.026396E-5	-0.320000
85.657694	1.158844E-5	-0.360000
85.894710	1.291259E-5	-0.400000
86.012717	1.427575E-5	-0.440000
86.129249	1.564054E-5	-0.480000
86.247012	1.703347E-5	-0.520000
86.365827	1.845647E-5	-0.560000
86.482835	1.992082E-5	-0.600000
86.598841	2.142368E-5	-0.640000
86.716848	2.299316E-5	-0.680000
86.834857	2.458807E-5	-0.720000
86.952863	2.626762E-5	-0.760000
87.069872	2.800973E-5	-0.800000
87.185587	2.980861E-5	-0.840000
87.303088	3.165066E-5	-0.880000
87.421465	3.353867E-5	-0.920000
87.537474	3.548488E-5	-0.960000
87.656481	3.748477E-5	-1.000000
87.773489	3.561023E-5	-0.960000
87.891496	3.371836E-5	-0.920000
88.007538	3.186408E-5	-0.880000
88.125480	3.005076E-5	-0.840000
88.241117	2.825316E-5	-0.800000
88.359124	2.652521E-5	-0.760000
88.479588	2.480965E-5	-0.720000
88.596111	2.316955E-5	-0.680000
88.713822	2.162065E-5	-0.640000
88.831831	2.006271E-5	-0.600000
88.948837	1.857097E-5	-0.560000
89.066845	1.710567E-5	-0.520000
89.183852	1.569192E-5	-0.480000
89.301087	1.431124E-5	-0.440000
89.418622	1.294642E-5	-0.400000
89.535121	1.159662E-5	-0.360000
89.652129	1.026516E-5	-0.320000
89.770137	8.949939E-6	-0.280000
89.954148	7.649996E-6	-0.240000
90.071156	6.355454E-6	-0.200000
90.190163	5.073582E-6	-0.160000
90.307171	3.794376E-6	-0.120000
90.425178	2.526452E-6	-0.080000
90.543186	1.261910E-6	-0.040000
90.660193	5.713053E-10	0.000000
90.847204	1.266720E-6	0.040000
91.090221	2.532927E-6	0.080000
91.208228	3.809771E-6	0.120000
91.326234	5.092818E-6	0.160000
91.444243	6.387572E-6	0.200000
91.563250	7.698461E-6	0.240000
91.680258	9.012966E-6	0.280000
91.797265	1.033638E-5	0.320000
91.916272	1.165920E-5	0.360000
92.152293	1.299957E-5	0.400000
92.270294	1.435189E-5	0.440000
92.388302	1.572513E-5	0.480000
92.505310	1.711057E-5	0.520000
92.623317	1.850470E-5	0.560000
92.741325	1.989350E-5	0.600000
92.857332	2.128844E-5	0.640000
92.974339	2.272123E-5	0.680000
93.090346	2.413613E-5	0.720000
93.209354	2.551874E-5	0.760000
93.327362	2.695833E-5	0.800000
93.443369	2.842864E-5	0.840000
93.562377	2.987066E-5	0.880000
93.680384	3.137795E-5	0.920000
93.797392	3.283121E-5	0.960000
93.914398	3.433142E-5	1.000000
94.030406	3.284403E-5	0.960000
94.149415	3.136491E-5	0.920000
94.267426	2.988942E-5	0.880000
94.383428	2.843869E-5	0.840000
94.502437	2.695760E-5	0.800000
94.620443	2.551876E-5	0.760000
94.737452	2.409343E-5	0.720000
94.854463	2.266928E-5	0.680000
94.970466	2.126779E-5	0.640000
95.087473	1.987249E-5	0.600000
95.219481	1.847000E-5	0.560000
95.337488	1.709261E-5	0.520000
95.455612	1.571884E-5	0.480000
95.573049	1.435574E-5	0.440000
95.690813	1.299637E-5	0.400000
95.807425	1.165575E-5	0.360000
95.926434	1.032843E-5	0.320000
96.044441	8.999639E-6	0.280000
96.226456	7.689430E-6	0.240000
96.343461	6.385537E-6	0.200000
96.460468	5.090397E-6	0.160000
96.579475	3.805039E-6	0.120000
96.697483	2.533912E-6	0.080000
96.815490	1.266804E-6	0.040000
96.934498	3.210056E-9	0.000000
97.122509	1.261817E-6	-0.040000
97.364524	2.526340E-6	-0.080000
97.482532	3.797027E-6	-0.120000
97.600540	5.071240E-6	-0.160000
97.718547	6.359138E-6	-0.200000
97.836555	7.644902E-6	-0.240000
97.953562	8.941862E-6	-0.280000
98.071569	1.025571E-5	-0.320000
98.191577	1.157173E-5	-0.360000
98.428592	1.291045E-5	-0.400000
98.546601	1.425757E-5	-0.440000
98.664607	1.563000E-5	-0.480000
98.782614	1.702550E-5	-0.520000
98.899622	1.845142E-5	-0.560000
99.018630	1.992331E-5	-0.600000
99.136639	2.143152E-5	-0.640000
99.255645	2.297363E-5	-0.680000
99.373652	2.459899E-5	-0.720000
99.490659	2.627701E-5	-0.760000
99.608666	2.801722E-5	-0.800000
99.725674	2.979987E-5	-0.840000
99.844682	3.164570E-5	-0.880000
99.960695	3.354426E-5	-0.920000
100.077697	3.559955E-5	-0.960000
100.195704	3.746546E-5	-1.000000
100.312711	3.560344E-5	-0.960000
100.430720	3.375923E-5	-0.920000
100.548726	3.182478E-5	-0.880000
100.665733	3.000238E-5	-0.840000
100.783741	2.822554E-5	-0.800000
100.902753	2.650053E-5	-0.760000
101.019756	2.481310E-5	-0.720000
101.138763	2.317606E-5	-0.680000
101.254771	2.159229E-5	-0.640000
101.372778	2.004880E-5	-0.600000
101.490787	1.856160E-5	-0.560000
101.607794	1.710393E-5	-0.520000
101.725801	1.568761E-5	-0.480000
101.843808	1.429935E-5	-0.440000
101.961816	1.293307E-5	-0.400000
102.078823	1.158884E-5	-0.360000
102.195831	1.026453E-5	-0.320000
102.312838	8.947703E-6	-0.280000
102.494849	7.643615E-6	-0.240000
102.612857	6.354090E-6	-0.200000
102.730864	5.066559E-6	-0.160000
102.850872	3.792039E-6	-0.120000
102.967879	2.524743E-6	-0.080000
103.085886	1.261077E-6	-0.040000
103.204895	6.268922E-10	0.000000
103.390905	1.267287E-6	0.040000
103.634866	2.532855E-6	0.080000
103.752216	3.807652E-6	0.120000
103.870224	5.088992E-6	0.160000
103.989232	6.383031E-6	0.200000
104.107238	7.683175E-6	0.240000
104.224246	8.995190E-6	0.280000
104.343254	1.031771E-5	0.320000
104.460261	1.165516E-5	0.360000
104.698276	1.300045E-5	0.400000
104.817283	1.435584E-5	0.440000
104.934289	1.571885E-5	0.480000
105.052298	1.708262E-5	0.520000
105.168305	1.847228E-5	0.560000
105.287312	1.987313E-5	0.600000
105.405320	2.126958E-5	0.640000
105.522329	2.266544E-5	0.680000
105.639335	2.408014E-5	0.720000
105.756342	2.549807E-5	0.760000
105.874350	2.695141E-5	0.800000
105.992357	2.838915E-5	0.840000
106.111365	2.984108E-5	0.880000
106.228373	3.130360E-5	0.920000
106.346379	3.277547E-5	0.960000
106.463387	3.425341E-5	1.000000
106.579394	3.276401E-5	0.960000
106.697402	3.131220E-5	0.920000
106.816410	2.984366E-5	0.880000
106.933423	2.838368E-5	0.840000
107.051425	2.694095E-5	0.800000
107.169438	2.551209E-5	0.760000
107.286755	2.407752E-5	0.720000
107.405945	2.267077E-5	0.680000
107.522355	2.125224E-5	0.640000
107.639361	1.985075E-5	0.600000
107.755370	1.846239E-5	0.560000
107.874377	1.708241E-5	0.520000
107.992385	1.571105E-5	0.480000
108.109392	1.434622E-5	0.440000
108.226398	1.299132E-5	0.400000
108.344407	1.164712E-5	0.360000
108.461413	1.031530E-5	0.320000
108.578422	8.990646E-6	0.280000
108.762433	7.677309E-6	0.240000
108.880441	6.376336E-6	0.200000
108.997448	5.085356E-6	0.160000
109.115456	3.805063E-6	0.120000
109.232463	2.533156E-6	0.080000
109.350471	1.264867E-6	0.040000
109.468478	3.142570E-9	0.000000
109.655489	1.260013E-6	-0.040000
109.899506	2.521850E-6	-0.080000
110.016513	3.789866E-6	-0.120000
110.135520	5.062856E-6	-0.160000
110.254528	6.348200E-6	-0.200000
110.372535	7.637987E-6	-0.240000
110.490542	8.936448E-6	-0.280000
110.608551	1.024991E-5	-0.320000
110.727557	1.157598E-5	-0.360000
110.963573	1.290607E-5	-0.400000
111.082581	1.425750E-5	-0.440000
111.200602	1.562405E-5	-0.480000
111.318610	1.702593E-5	-0.520000
111.434629	1.844659E-5	-0.560000
111.551194	1.990538E-5	-0.600000
111.667202	2.141453E-5	-0.640000
111.784210	2.297815E-5	-0.680000
111.902217	2.458462E-5	-0.720000
112.019224	2.625838E-5	-0.760000
112.136232	2.798916E-5	-0.800000
112.254239	2.976989E-5	-0.840000
112.370246	3.160760E-5	-0.880000
112.489254	3.351112E-5	-0.920000
112.605301	3.543649E-5	-0.960000
112.724269	3.740789E-5	-1.000000
112.840275	3.549901E-5	-0.960000
112.958287	3.363362E-5	-0.920000
113.076291	3.177933E-5	-0.880000
113.199761	2.996715E-5	-0.840000
113.316324	2.820453E-5	-0.800000
113.433938	2.647754E-5	-0.760000
113.549946	2.478900E-5	-0.720000
113.667954	2.316361E-5	-0.680000
113.784960	2.157791E-5	-0.640000
113.902968	2.005926E-5	-0.600000
114.019975	1.856587E-5	-0.560000
114.136982	1.710497E-5	-0.520000
114.254990	1.569405E-5	-0.480000
114.331996	1.429970E-5	-0.440000
114.409180	1.293902E-5	-0.400000
114.486197	1.159541E-5	-0.360000
114.562202	1.026539E-5	-0.320000
114.638209	8.950159E-6	-0.280000
114.780215	7.645758E-6	-0.240000
114.857221	6.348541E-6	-0.200000
114.934224	5.065365E-6	-0.160000
115.012229	3.790226E-6	-0.120000
115.089234	2.524182E-6	-0.080000
115.167240	1.260354E-6	-0.040000
115.246256	6.333899E-10	0.000000
115.392419	1.265759E-6	0.040000
115.595531	2.532658E-6	0.080000
115.675601	3.808829E-6	0.120000
115.753675	5.090998E-6	0.160000
115.832730	6.386237E-6	0.200000
115.909808	7.690542E-6	0.240000
115.986827	9.005785E-6	0.280000
116.063914	1.032625E-5	0.320000
116.140931	1.165602E-5	0.360000
116.338046	1.299876E-5	0.400000
116.415051	1.436093E-5	0.440000
116.494113	1.572048E-5	0.480000
116.570214	1.710969E-5	0.520000
116.648318	1.849805E-5	0.560000
116.725381	1.992640E-5	0.600000
116.801385	2.129810E-5	0.640000
116.878390	2.267668E-5	0.680000
116.955395	2.416182E-5	0.720000
117.031401	2.555269E-5	0.760000
117.109405	2.699233E-5	0.800000
117.185471	2.845324E-5	0.840000
117.263546	2.990368E-5	0.880000
117.339638	3.139352E-5	0.920000
117.416822	3.285137E-5	0.960000
117.494828	3.427233E-5	1.000000
117.570833	3.278574E-5	0.960000
117.647838	3.132276E-5	0.920000
117.724843	2.985578E-5	0.880000
117.801847	2.840463E-5	0.840000
117.879852	2.695654E-5	0.800000
117.955859	2.550719E-5	0.760000
118.031862	2.408839E-5	0.720000
118.108867	2.266813E-5	0.680000
118.185872	2.125980E-5	0.640000
118.261877	1.985948E-5	0.600000
118.338881	1.846317E-5	0.560000
118.415886	1.708776E-5	0.520000
118.491891	1.571159E-5	0.480000
118.569896	1.434975E-5	0.440000
118.645901	1.298934E-5	0.400000
118.723907	1.165288E-5	0.360000
118.800910	1.031539E-5	0.320000
118.877916	8.995798E-6	0.280000
119.018925	7.680943E-6	0.240000
119.096929	6.380398E-6	0.200000
119.173935	5.089000E-6	0.160000
119.251939	3.808395E-6	0.120000
119.329944	2.534270E-6	0.080000
119.406949	1.266464E-6	0.040000
119.483953	3.226697E-9	0.000000
119.630962	1.261247E-6	-0.040000
119.831976	2.525680E-6	-0.080000
119.909980	3.793270E-6	-0.120000
119.986986	5.067483E-6	-0.160000
120.065053	6.350951E-6	-0.200000
120.143071	7.637852E-6	-0.240000
120.221125	8.938327E-6	-0.280000
120.300191	1.025253E-5	-0.320000
120.379196	1.157521E-5	-0.360000
120.581286	1.291388E-5	-0.400000
120.658365	1.426528E-5	-0.440000
120.735415	1.563811E-5	-0.480000
120.811419	1.702811E-5	-0.520000
120.888424	1.845603E-5	-0.560000
120.965429	1.990989E-5	-0.600000
121.042434	2.142102E-5	-0.640000
121.119438	2.297882E-5	-0.680000
121.196443	2.457249E-5	-0.720000
121.273448	2.623643E-5	-0.760000
121.349453	2.796172E-5	-0.800000
121.426457	2.972888E-5	-0.840000
121.503463	3.155574E-5	-0.880000
121.580469	3.342290E-5	-0.920000
121.657473	3.533913E-5	-0.960000
121.734478	3.730385E-5	-1.000000
121.811482	3.541695E-5	-0.960000
121.888486	3.354424E-5	-0.920000
121.966492	3.170671E-5	-0.880000
122.042497	2.990438E-5	-0.840000
122.119502	2.813907E-5	-0.800000
122.196507	2.643626E-5	-0.760000
122.273560	2.475543E-5	-0.720000
122.350681	2.312110E-5	-0.680000
122.427766	2.154676E-5	-0.640000
122.504850	2.002547E-5	-0.600000
122.581855	1.853718E-5	-0.560000
122.659860	1.708597E-5	-0.520000
122.736866	1.567246E-5	-0.480000
122.813869	1.429305E-5	-0.440000
122.890874	1.292946E-5	-0.400000
122.967879	1.158734E-5	-0.360000
123.044884	1.025730E-5	-0.320000
123.121889	8.945585E-6	-0.280000
123.263898	7.646275E-6	-0.240000
123.340902	6.358831E-6	-0.200000
123.417909	5.071520E-6	-0.160000
123.494912	3.794735E-6	-0.120000
123.572917	2.525007E-6	-0.080000
123.650017	1.261414E-6	-0.040000
123.727096	5.669066E-10	0.000000
123.873244	1.266915E-6	0.040000
124.075272	2.534390E-6	0.080000
124.153276	3.809770E-6	0.120000
124.230282	5.091824E-6	0.160000
124.308288	6.382571E-6	0.200000
124.385292	7.683132E-6	0.240000
124.462347	8.998609E-6	0.280000
124.539563	1.032198E-5	0.320000
124.616650	1.165748E-5	0.360000
124.813752	1.299962E-5	0.400000
124.891757	1.435628E-5	0.440000
124.968763	1.571647E-5	0.480000
125.045767	1.709753E-5	0.520000
125.121772	1.848350E-5	0.560000
125.199778	1.986395E-5	0.600000
125.275851	2.127064E-5	0.640000
125.354058	2.268270E-5	0.680000
125.430120	2.410808E-5	0.720000
125.507230	2.551785E-5	0.760000
125.584235	2.695041E-5	0.800000
125.662240	2.841095E-5	0.840000
125.739245	2.986833E-5	0.880000
125.815249	3.132001E-5	0.920000
125.892254	3.279402E-5	0.960000
125.969264	3.427563E-5	1.000000
126.045264	3.278815E-5	0.960000
126.123271	3.131577E-5	0.920000
126.200274	2.986024E-5	0.880000
126.276279	2.840176E-5	0.840000
126.354284	2.695234E-5	0.800000
126.430288	2.552266E-5	0.760000
126.508294	2.409271E-5	0.720000
126.585299	2.266950E-5	0.680000
126.661303	2.126090E-5	0.640000
126.739308	1.987110E-5	0.600000
126.817313	1.847867E-5	0.560000
126.894318	1.708542E-5	0.520000
126.971323	1.571380E-5	0.480000
127.048333	1.434760E-5	0.440000
127.125333	1.299317E-5	0.400000
127.222338	1.165106E-5	0.360000
127.299344	1.032180E-5	0.320000
127.377349	8.996124E-6	0.280000
127.520481	7.688699E-6	0.240000
127.598535	6.381840E-6	0.200000
127.675541	5.088702E-6	0.160000
127.752546	3.807666E-6	0.120000
127.829550	2.534153E-6	0.080000
127.907554	1.266961E-6	0.040000
127.984560	3.267136E-9	0.000000
128.130568	1.261060E-6	-0.040000
128.332582	2.525214E-6	-0.080000
128.409585	3.791997E-6	-0.120000
128.486591	5.066406E-6	-0.160000
128.564596	6.349218E-6	-0.200000
128.642601	7.645303E-6	-0.240000
128.719605	8.944407E-6	-0.280000
128.796610	1.025794E-5	-0.320000
128.873617	1.158042E-5	-0.360000
129.070628	1.291287E-5	-0.400000
129.147634	1.426736E-5	-0.440000
129.224638	1.563537E-5	-0.480000
129.300642	1.703493E-5	-0.520000
129.377648	1.845750E-5	-0.560000
129.458676	1.991950E-5	-0.600000
129.536792	2.141014E-5	-0.640000
129.613858	2.296154E-5	-0.680000
129.690059	2.458426E-5	-0.720000
129.767064	2.623071E-5	-0.760000
129.844069	2.794226E-5	-0.800000
129.921074	2.971753E-5	-0.840000
129.998080	3.153933E-5	-0.880000
130.075150	3.342353E-5	-0.920000
130.153214	3.533480E-5	-0.960000
130.231300	3.729116E-5	-1.000000
130.308333	3.539912E-5	-0.960000
130.385341	3.354042E-5	-0.920000
130.462352	3.169008E-5	-0.880000
130.538349	2.989502E-5	-0.840000
130.615354	2.812801E-5	-0.800000
130.692358	2.642077E-5	-0.760000
130.769363	2.473656E-5	-0.720000
130.848368	2.312106E-5	-0.680000
130.924372	2.154507E-5	-0.640000
131.000378	2.002026E-5	-0.600000
131.077383	1.853704E-5	-0.560000
131.153387	1.709210E-5	-0.520000
131.231426	1.568040E-5	-0.480000
131.307545	1.429388E-5	-0.440000
131.385630	1.292999E-5	-0.400000
131.463688	1.158783E-5	-0.360000
131.540691	1.025904E-5	-0.320000
131.617697	8.943221E-6	-0.280000
131.759706	7.644019E-6	-0.240000
131.837711	6.349685E-6	-0.200000
131.915715	5.067856E-6	-0.160000
131.992722	3.793431E-6	-0.120000
132.069726	2.524536E-6	-0.080000
132.147852	1.261309E-6	-0.040000
132.224922	6.091961E-10	0.000000
132.372048	1.266455E-6	0.040000
132.573061	2.534705E-6	0.080000
132.651066	3.808148E-6	0.120000
132.728071	5.090928E-6	0.160000
132.806075	6.382010E-6	0.200000
132.883080	7.684412E-6	0.240000
132.960085	8.997206E-6	0.280000
133.037090	1.031908E-5	0.320000
133.114095	1.165342E-5	0.360000
133.310108	1.300260E-5	0.400000
133.387112	1.434992E-5	0.440000
133.464161	1.571958E-5	0.480000
133.540265	1.708678E-5	0.520000
133.617348	1.846789E-5	0.560000
133.694454	1.985879E-5	0.600000
133.772458	2.125902E-5	0.640000
133.848463	2.267863E-5	0.680000
133.925468	2.409984E-5	0.720000
134.002473	2.551283E-5	0.760000
134.080477	2.696860E-5	0.800000
134.157558	2.840661E-5	0.840000
134.235652	2.986089E-5	0.880000
134.312749	3.133840E-5	0.920000
134.388802	3.279384E-5	0.960000
134.464807	3.428874E-5	1.000000
134.541811	3.279954E-5	0.960000
134.618817	3.132152E-5	0.920000
134.695822	2.985298E-5	0.880000
134.772826	2.839600E-5	0.840000
134.849939	2.696147E-5	0.800000
134.927026	2.551675E-5	0.760000
135.004143	2.409068E-5	0.720000
135.081232	2.268015E-5	0.680000
135.158235	2.126918E-5	0.640000
135.236274	1.986987E-5	0.600000
135.313362	1.847635E-5	0.560000
135.391366	1.708880E-5	0.520000
135.467534	1.571799E-5	0.480000
135.544538	1.435764E-5	0.440000
135.621544	1.300576E-5	0.400000
135.698549	1.165724E-5	0.360000
135.776554	1.032733E-5	0.320000
135.853558	9.000492E-6	0.280000
135.996567	7.687863E-6	0.240000
136.073573	6.387644E-6	0.200000
136.151577	5.092566E-6	0.160000
136.228581	3.810624E-6	0.120000
136.305587	2.535086E-6	0.080000
136.385640	1.267694E-6	0.040000
136.462760	3.233643E-9	0.000000
136.608884	1.261344E-6	-0.040000
136.811898	2.525047E-6	-0.080000
136.888902	3.792805E-6	-0.120000
136.966907	5.066442E-6	-0.160000
137.044913	6.349278E-6	-0.200000
137.122917	7.641107E-6	-0.240000
137.199921	8.940691E-6	-0.280000
137.276926	1.024965E-5	-0.320000
137.353931	1.157735E-5	-0.360000
137.550944	1.291334E-5	-0.400000
137.628948	1.426407E-5	-0.440000
137.705953	1.563192E-5	-0.480000
137.782959	1.701920E-5	-0.520000
137.858963	1.844727E-5	-0.560000
137.935968	1.990064E-5	-0.600000
138.012973	2.140143E-5	-0.640000
138.089978	2.294884E-5	-0.680000
138.167055	2.454956E-5	-0.720000
138.245224	2.621562E-5	-0.760000
138.321276	2.794144E-5	-0.800000
138.398409	2.971534E-5	-0.840000
138.476416	3.155191E-5	-0.880000
138.552422	3.342229E-5	-0.920000
138.629426	3.533022E-5	-0.960000
138.705431	3.728758E-5	-1.000000
138.783436	3.539211E-5	-0.960000
138.859441	3.353502E-5	-0.920000
138.937474	3.169142E-5	-0.880000
139.016691	2.989436E-5	-0.840000
139.093754	2.812925E-5	-0.800000
139.170969	2.641567E-5	-0.760000
139.246974	2.474159E-5	-0.720000
139.323979	2.311581E-5	-0.680000
139.400984	2.154630E-5	-0.640000
139.478991	2.002627E-5	-0.600000
139.555994	1.853454E-5	-0.560000
139.631998	1.709203E-5	-0.520000
139.709003	1.567254E-5	-0.480000
139.785008	1.429533E-5	-0.440000
139.863014	1.293183E-5	-0.400000
139.940018	1.158929E-5	-0.360000
140.017023	1.026270E-5	-0.320000
140.094083	8.944516E-6	-0.280000
140.236232	7.643979E-6	-0.240000
140.314283	6.353099E-6	-0.200000
140.392288	5.069724E-6	-0.160000
140.469295	3.794029E-6	-0.120000
140.545406	2.525334E-6	-0.080000
140.623475	1.261892E-6	-0.040000
140.701527	4.954244E-10	0.000000
140.849638	1.267375E-6	0.040000
141.051817	2.534792E-6	0.080000
141.130822	3.809557E-6	0.120000
141.210885	5.091266E-6	0.160000
141.287935	6.383847E-6	0.200000
141.365010	7.688494E-6	0.240000
141.443121	9.002395E-6	0.280000
141.522126	1.032684E-5	0.320000
141.601195	1.165293E-5	0.360000
141.798398	1.299987E-5	0.400000
141.875448	1.435245E-5	0.440000
141.954451	1.571565E-5	0.480000
142.031457	1.709015E-5	0.520000
142.110461	1.847794E-5	0.560000
142.187467	1.986630E-5	0.600000
142.264473	2.126467E-5	0.640000
142.341477	2.267073E-5	0.680000
142.417481	2.409070E-5	0.720000
142.496486	2.552039E-5	0.760000
142.572491	2.695904E-5	0.800000
142.649497	2.840108E-5	0.840000
142.727504	2.985716E-5	0.880000
142.806507	3.134631E-5	0.920000
142.883512	3.280733E-5	0.960000
142.960517	3.429722E-5	1.000000
143.037534	3.279529E-5	0.960000
143.115539	3.132681E-5	0.920000
143.192544	2.985485E-5	0.880000
143.269550	2.839805E-5	0.840000
143.346554	2.694419E-5	0.800000
143.425560	2.552515E-5	0.760000
143.501734	2.409934E-5	0.720000
143.578742	2.267561E-5	0.680000
143.655743	2.125715E-5	0.640000
143.732748	1.986336E-5	0.600000
143.809753	1.847855E-5	0.560000
143.886757	1.710079E-5	0.520000
143.963797	1.571211E-5	0.480000
144.040846	1.435580E-5	0.440000
144.117951	1.299421E-5	0.400000
144.195025	1.165409E-5	0.360000
144.272100	1.031890E-5	0.320000
144.350184	9.003501E-6	0.280000
144.492306	7.689011E-6	0.240000
144.570311	6.382938E-6	0.200000
144.648316	5.091750E-6	0.160000
144.725330	3.808289E-6	0.120000
144.803327	2.533554E-6	0.080000
144.881331	1.266426E-6	0.040000
144.959350	3.275536E-9	0.000000
145.105359	1.261969E-6	-0.040000
145.307371	2.524864E-6	-0.080000
145.384377	3.794499E-6	-0.120000
145.462382	5.071687E-6	-0.160000
145.540386	6.348990E-6	-0.200000
145.618391	7.640785E-6	-0.240000
145.695396	8.942734E-6	-0.280000
145.773402	1.025642E-5	-0.320000
145.851407	1.157641E-5	-0.360000
146.047419	1.291635E-5	-0.400000
146.124423	1.426644E-5	-0.440000
146.201478	1.563689E-5	-0.480000
146.278551	1.703084E-5	-0.520000
146.356640	1.846078E-5	-0.560000
146.432703	1.991518E-5	-0.600000
146.509717	2.141988E-5	-0.640000
146.586713	2.296320E-5	-0.680000
146.663718	2.456334E-5	-0.720000
146.741723	2.622745E-5	-0.760000
146.818728	2.793603E-5	-0.800000
146.895733	2.972301E-5	-0.840000
146.972738	3.155626E-5	-0.880000
147.049742	3.343174E-5	-0.920000
147.126747	3.534191E-5	-0.960000
147.203752	3.728592E-5	-1.000000
147.281767	3.539811E-5	-0.960000
147.358762	3.353079E-5	-0.920000
147.435766	3.169661E-5	-0.880000
147.512772	2.989463E-5	-0.840000
147.589777	2.812979E-5	-0.800000
147.665781	2.640864E-5	-0.760000
147.742786	2.474134E-5	-0.720000
147.819792	2.311845E-5	-0.680000
147.895796	2.154483E-5	-0.640000
147.972801	2.001794E-5	-0.600000
148.049806	1.853405E-5	-0.560000
148.125811	1.709632E-5	-0.520000
148.202909	1.568369E-5	-0.480000
148.279963	1.430136E-5	-0.440000
148.356059	1.293562E-5	-0.400000
148.433117	1.159156E-5	-0.360000
148.510122	1.026598E-5	-0.320000
148.588126	8.947769E-6	-0.280000
148.730135	7.646273E-6	-0.240000
148.807139	6.352695E-6	-0.200000
148.885144	5.069615E-6	-0.160000
148.962151	3.794752E-6	-0.120000
149.039155	2.525955E-6	-0.080000
149.117160	1.261807E-6	-0.040000
149.194165	5.785032E-10	0.000000
149.340293	1.267511E-6	0.040000
149.542497	2.535248E-6	0.080000
149.620502	3.809332E-6	0.120000
149.697506	5.091295E-6	0.160000
149.775574	6.385421E-6	0.200000
149.852673	7.689659E-6	0.240000
149.929903	9.001611E-6	0.280000
150.007960	1.032634E-5	0.320000
150.085965	1.165970E-5	0.360000
150.282977	1.300955E-5	0.400000
150.359983	1.436013E-5	0.440000
150.436987	1.572425E-5	0.480000
150.512992	1.710188E-5	0.520000
150.590998	1.848537E-5	0.560000
150.667002	1.987784E-5	0.600000
150.744007	2.127709E-5	0.640000
150.821011	2.268386E-5	0.680000
150.898015	2.410395E-5	0.720000
150.975021	2.553710E-5	0.760000
151.052026	2.697277E-5	0.800000
151.130080	2.841899E-5	0.840000
151.207161	2.986992E-5	0.880000
151.284211	3.132634E-5	0.920000
151.361307	3.280432E-5	0.960000
151.437312	3.428471E-5	1.000000
151.514317	3.278374E-5	0.960000
151.592322	3.131538E-5	0.920000
151.669326	2.984555E-5	0.880000
151.745332	2.840409E-5	0.840000
151.822336	2.694663E-5	0.800000
151.899342	2.551552E-5	0.760000
151.976346	2.409158E-5	0.720000
152.053351	2.267301E-5	0.680000
152.130356	2.125726E-5	0.640000
152.207374	1.986553E-5	0.600000
152.286445	1.847256E-5	0.560000
152.362507	1.709047E-5	0.520000
152.439537	1.571987E-5	0.480000
152.516541	1.436114E-5	0.440000
152.594546	1.300322E-5	0.400000
152.671551	1.166157E-5	0.360000
152.748556	1.032824E-5	0.320000
152.825561	9.007043E-6	0.280000
152.967570	7.688414E-6	0.240000
153.044574	6.384863E-6	0.200000
153.121579	5.094312E-6	0.160000
153.198584	3.811537E-6	0.120000
153.275645	2.535653E-6	0.080000
153.352753	1.267207E-6	0.040000
153.430846	3.283482E-9	0.000000
153.576924	1.261918E-6	-0.040000
153.779937	2.526147E-6	-0.080000
153.856942	3.793671E-6	-0.120000
153.933947	5.069126E-6	-0.160000
154.011952	6.353392E-6	-0.200000
154.088956	7.644685E-6	-0.240000
154.165961	8.947934E-6	-0.280000
154.242966	1.025983E-5	-0.320000
154.319971	1.158492E-5	-0.360000
154.516985	1.292038E-5	-0.400000
154.593989	1.427148E-5	-0.440000
154.670994	1.564385E-5	-0.480000
154.746998	1.703787E-5	-0.520000
154.824003	1.845746E-5	-0.560000
154.901008	1.991163E-5	-0.600000
154.979013	2.141069E-5	-0.640000
155.055017	2.295980E-5	-0.680000
155.132023	2.456431E-5	-0.720000
155.210027	2.622227E-5	-0.760000
155.286084	2.794119E-5	-0.800000
155.363158	2.971374E-5	-0.840000
155.440224	3.153727E-5	-0.880000
155.517278	3.342098E-5	-0.920000
155.595284	3.533490E-5	-0.960000
155.671289	3.730235E-5	-1.000000
155.748294	3.541236E-5	-0.960000
155.825299	3.353140E-5	-0.920000
155.902304	3.169850E-5	-0.880000
155.979317	2.989607E-5	-0.840000
156.056316	2.813678E-5	-0.800000
156.134318	2.642132E-5	-0.760000
156.210323	2.474668E-5	-0.720000
156.288391	2.312477E-5	-0.680000
156.365469	2.154862E-5	-0.640000
156.443534	2.002446E-5	-0.600000
156.519622	1.853539E-5	-0.560000
156.596745	1.709709E-5	-0.520000
156.673757	1.568250E-5	-0.480000
156.750755	1.429978E-5	-0.440000
156.827759	1.293773E-5	-0.400000
156.904764	1.159669E-5	-0.360000
156.981770	1.026775E-5	-0.320000
157.058775	8.952004E-6	-0.280000
157.199784	7.649885E-6	-0.240000
157.277853	6.357706E-6	-0.200000
157.355962	5.072972E-6	-0.160000
157.434039	3.796478E-6	-0.120000
157.512158	2.527430E-6	-0.080000
157.590164	1.262358E-6	-0.040000
157.667170	5.981489E-10	0.000000
157.813179	1.267952E-6	0.040000
158.014190	2.536634E-6	0.080000
158.092196	3.811476E-6	0.120000
158.169200	5.094985E-6	0.160000
158.247206	6.387460E-6	0.200000
158.326210	7.691468E-6	0.240000
158.404215	9.005187E-6	0.280000
158.481219	1.032661E-5	0.320000
158.560225	1.166519E-5	0.360000
158.757237	1.300143E-5	0.400000
158.835242	1.435492E-5	0.440000
158.913248	1.572571E-5	0.480000
158.991252	1.709515E-5	0.520000
159.068257	1.848032E-5	0.560000
159.145262	1.988321E-5	0.600000
159.222267	2.127702E-5	0.640000
159.299272	2.268702E-5	0.680000
159.377280	2.410832E-5	0.720000
159.455282	2.553294E-5	0.760000
159.532475	2.696177E-5	0.800000
159.609480	2.840567E-5	0.840000
159.686485	2.986479E-5	0.880000
159.763490	3.131962E-5	0.920000
159.841496	3.279010E-5	0.960000
159.918500	3.427563E-5	1.000000
159.994505	3.278667E-5	0.960000
160.071510	3.131189E-5	0.920000
160.149514	2.984874E-5	0.880000
160.227591	2.839372E-5	0.840000
160.303631	2.694684E-5	0.800000
160.381698	2.551081E-5	0.760000
160.457716	2.408676E-5	0.720000
160.534721	2.267333E-5	0.680000
160.611726	2.126475E-5	0.640000
160.687730	1.986089E-5	0.600000
160.765735	1.847347E-5	0.560000
160.841740	1.709174E-5	0.520000
160.918745	1.572081E-5	0.480000
160.995749	1.435319E-5	0.440000
161.073754	1.299716E-5	0.400000
161.150759	1.165631E-5	0.360000
161.228764	1.032477E-5	0.320000
161.306770	9.001774E-6	0.280000
161.448779	7.687214E-6	0.240000
161.525783	6.384485E-6	0.200000
161.602788	5.092774E-6	0.160000
161.679793	3.809670E-6	0.120000
161.756798	2.533998E-6	0.080000
161.834803	1.266872E-6	0.040000
161.911808	3.269188E-9	0.000000
162.058817	1.261218E-6	-0.040000
162.259830	2.525264E-6	-0.080000
162.337834	3.794016E-6	-0.120000
162.414840	5.068917E-6	-0.160000
162.492891	6.353023E-6	-0.200000
162.569933	7.645920E-6	-0.240000
162.647039	8.947580E-6	-0.280000
162.725069	1.025672E-5	-0.320000
162.803086	1.157978E-5	-0.360000
163.000098	1.291545E-5	-0.400000
163.078104	1.427109E-5	-0.440000
163.155108	1.563964E-5	-0.480000
163.231113	1.702984E-5	-0.520000
163.308118	1.844900E-5	-0.560000
163.385123	1.991036E-5	-0.600000
163.462152	2.140802E-5	-0.640000
163.539215	2.295743E-5	-0.680000
163.616322	2.456232E-5	-0.720000
163.694370	2.622116E-5	-0.760000
163.770387	2.793342E-5	-0.800000
163.847392	2.970339E-5	-0.840000
163.923397	3.153096E-5	-0.880000
164.000401	3.341044E-5	-0.920000
164.077407	3.532961E-5	-0.960000
164.153411	3.728802E-5	-1.000000
164.230466	3.539589E-5	-0.960000
164.308549	3.352897E-5	-0.920000
164.384605	3.168963E-5	-0.880000
164.462634	2.988959E-5	-0.840000
164.538639	2.813535E-5	-0.800000
164.616642	2.641577E-5	-0.760000
164.692648	2.474341E-5	-0.720000
164.769653	2.312108E-5	-0.680000
164.847658	2.154552E-5	-0.640000
164.923662	2.001690E-5	-0.600000
165.001667	1.853230E-5	-0.560000
165.079673	1.709002E-5	-0.520000
165.155677	1.567718E-5	-0.480000
165.233685	1.429537E-5	-0.440000
165.310687	1.293309E-5	-0.400000
165.387692	1.159020E-5	-0.360000
165.465697	1.026211E-5	-0.320000
165.542702	8.945810E-6	-0.280000
165.683713	7.644023E-6	-0.240000
165.761715	6.351510E-6	-0.200000
165.838720	5.068375E-6	-0.160000
165.915725	3.792864E-6	-0.120000
165.992731	2.525458E-6	-0.080000
166.069735	1.261351E-6	-0.040000
166.146739	5.458112E-10	0.000000
166.292888	1.266471E-6	0.040000
166.494054	2.534192E-6	0.080000
166.572058	3.808055E-6	0.120000
166.649064	5.090448E-6	0.160000
166.727068	6.379848E-6	0.200000
166.804074	7.683777E-6	0.240000
166.881078	8.997829E-6	0.280000
166.958084	1.031844E-5	0.320000
167.035087	1.165084E-5	0.360000
167.232101	1.299535E-5	0.400000
167.310105	1.435019E-5	0.440000
167.387110	1.571113E-5	0.480000
167.464116	1.708477E-5	0.520000
167.540124	1.847298E-5	0.560000
167.617125	1.985970E-5	0.600000
167.694129	2.126078E-5	0.640000
167.772134	2.267033E-5	0.680000
167.848139	2.409015E-5	0.720000
167.925213	2.551962E-5	0.760000
168.002283	2.695403E-5	0.800000
168.080355	2.839932E-5	0.840000
168.156421	2.984674E-5	0.880000
168.232454	3.131091E-5	0.920000
168.308557	3.278683E-5	0.960000
168.385573	3.426989E-5	1.000000
168.462602	3.278408E-5	0.960000
168.539607	3.130824E-5	0.920000
168.616611	2.983958E-5	0.880000
168.693618	2.838298E-5	0.840000
168.769621	2.694140E-5	0.800000
168.846626	2.551197E-5	0.760000
168.923633	2.407967E-5	0.720000
169.000635	2.266015E-5	0.680000
169.076640	2.125764E-5	0.640000
169.153645	1.985714E-5	0.600000
169.230657	1.846856E-5	0.560000
169.306663	1.709198E-5	0.520000
169.382659	1.572220E-5	0.480000
169.459668	1.435919E-5	0.440000
169.537669	1.299913E-5	0.400000
169.614680	1.165792E-5	0.360000
169.691680	1.032400E-5	0.320000
169.768683	9.001087E-6	0.280000
169.910693	7.687247E-6	0.240000
169.987698	6.385888E-6	0.200000
170.064703	5.092217E-6	0.160000
170.141709	3.809023E-6	0.120000
170.218759	2.534487E-6	0.080000
170.296833	1.267287E-6	0.040000
170.374885	3.233743E-9	0.000000
170.521974	1.261692E-6	-0.040000
170.722986	2.525689E-6	-0.080000
170.800991	3.795604E-6	-0.120000
170.877997	5.069562E-6	-0.160000
170.956002	6.352499E-6	-0.200000
171.033011	7.643669E-6	-0.240000
171.110011	8.946668E-6	-0.280000
171.187016	1.026057E-5	-0.320000
171.264021	1.158125E-5	-0.360000
171.460033	1.291855E-5	-0.400000
171.538038	1.427175E-5	-0.440000
171.615043	1.564149E-5	-0.480000
171.691048	1.703562E-5	-0.520000
171.769053	1.845417E-5	-0.560000
171.845057	1.991246E-5	-0.600000
171.922062	2.140972E-5	-0.640000
172.000067	2.295820E-5	-0.680000
172.076072	2.456529E-5	-0.720000
172.153077	2.622510E-5	-0.760000
172.230083	2.793676E-5	-0.800000
172.307086	2.971714E-5	-0.840000
172.384150	3.154454E-5	-0.880000
172.462234	3.341834E-5	-0.920000
172.538320	3.533221E-5	-0.960000
172.616382	3.728888E-5	-1.000000
172.691400	3.540053E-5	-0.960000
172.768405	3.353206E-5	-0.920000
172.845409	3.168922E-5	-0.880000
172.922414	2.989223E-5	-0.840000
172.999419	2.813314E-5	-0.800000
173.075424	2.641359E-5	-0.760000
173.152430	2.474246E-5	-0.720000
173.229434	2.312677E-5	-0.680000
173.306439	2.154628E-5	-0.640000
173.384443	2.002112E-5	-0.600000
173.460462	1.853166E-5	-0.560000
173.537467	1.709099E-5	-0.520000
173.614472	1.568226E-5	-0.480000
173.691476	1.430044E-5	-0.440000
173.769481	1.293823E-5	-0.400000
173.846486	1.159490E-5	-0.360000
173.923491	1.026550E-5	-0.320000
174.000496	8.950677E-6	-0.280000
174.141505	7.647200E-6	-0.240000
174.219509	6.355720E-6	-0.200000
174.296515	5.070573E-6	-0.160000
174.375520	3.796088E-6	-0.120000
174.454525	2.526371E-6	-0.080000
174.531529	1.262294E-6	-0.040000
174.609534	6.455864E-10	0.000000
174.756543	1.267355E-6	0.040000
174.959556	2.536410E-6	0.080000
175.037561	3.810905E-6	0.120000
175.115566	5.092071E-6	0.160000
175.194571	6.384135E-6	0.200000
175.271576	7.686849E-6	0.240000
175.349582	8.999023E-6	0.280000
175.427587	1.032451E-5	0.320000
175.505701	1.165393E-5	0.360000
175.702754	1.300068E-5	0.400000
175.780757	1.435418E-5	0.440000
175.857763	1.571650E-5	0.480000
175.933768	1.708683E-5	0.520000
176.011773	1.846969E-5	0.560000
176.087778	1.986226E-5	0.600000
176.164783	2.125829E-5	0.640000
176.242787	2.266861E-5	0.680000
176.318851	2.407945E-5	0.720000
176.396914	2.550927E-5	0.760000
176.474965	2.694057E-5	0.800000
176.551982	2.838747E-5	0.840000
176.627988	2.984589E-5	0.880000
176.705993	3.131286E-5	0.920000
176.780998	3.277653E-5	0.960000
176.858002	3.427258E-5	1.000000
176.935007	3.277273E-5	0.960000
177.012012	3.130161E-5	0.920000
177.089016	2.984326E-5	0.880000
177.166022	2.838472E-5	0.840000
177.243026	2.694179E-5	0.800000
177.320038	2.550433E-5	0.760000
177.397037	2.408065E-5	0.720000
177.474041	2.266194E-5	0.680000
177.551046	2.125717E-5	0.640000
177.628053	1.985617E-5	0.600000
177.705056	1.846744E-5	0.560000
177.782061	1.709038E-5	0.520000
177.860065	1.571327E-5	0.480000
177.936070	1.435158E-5	0.440000
178.014075	1.299889E-5	0.400000
178.091081	1.165609E-5	0.360000
178.168085	1.032118E-5	0.320000
178.244149	9.000642E-6	0.280000
178.386303	7.687289E-6	0.240000
178.464367	6.384569E-6	0.200000
178.542372	5.093016E-6	0.160000
178.619377	3.809210E-6	0.120000
178.696383	2.535241E-6	0.080000
178.773386	1.266972E-6	0.040000
178.850408	3.220249E-9	0.000000
178.997515	1.261929E-6	-0.040000
179.199608	2.525638E-6	-0.080000
179.277672	3.795524E-6	-0.120000
179.354887	5.070247E-6	-0.160000
179.432941	6.353046E-6	-0.200000
179.511005	7.644619E-6	-0.240000
179.589074	8.945483E-6	-0.280000
179.666080	1.026043E-5	-0.320000
179.743084	1.158723E-5	-0.360000
179.940097	1.292167E-5	-0.400000
180.017102	1.427659E-5	-0.440000
180.094106	1.564424E-5	-0.480000
180.171111	1.703716E-5	-0.520000
180.248115	1.845766E-5	-0.560000
180.324121	1.991654E-5	-0.600000
180.401125	2.141123E-5	-0.640000
180.478131	2.295952E-5	-0.680000
180.555135	2.456339E-5	-0.720000
180.633140	2.622409E-5	-0.760000
180.709146	2.794859E-5	-0.800000
180.786150	2.971352E-5	-0.840000
180.863155	3.154259E-5	-0.880000
180.940160	3.341187E-5	-0.920000
181.018165	3.533181E-5	-0.960000
181.094170	3.728994E-5	-1.000000
181.171175	3.539921E-5	-0.960000
181.248189	3.353291E-5	-0.920000
181.326235	3.169491E-5	-0.880000
181.402321	2.989414E-5	-0.840000
181.478406	2.813602E-5	-0.800000
181.556462	2.641493E-5	-0.760000
181.632466	2.475053E-5	-0.720000
181.709470	2.312210E-5	-0.680000
181.785476	2.155504E-5	-0.640000
181.862481	2.002722E-5	-0.600000
181.939486	1.854058E-5	-0.560000
182.016490	1.709663E-5	-0.520000
182.094495	1.568506E-5	-0.480000
182.170500	1.430388E-5	-0.440000
182.248551	1.294081E-5	-0.400000
182.325657	1.159771E-5	-0.360000
182.402709	1.026941E-5	-0.320000
182.480798	8.954064E-6	-0.280000
182.622806	7.647890E-6	-0.240000
182.699811	6.356133E-6	-0.200000
182.776816	5.073577E-6	-0.160000
182.854888	3.797537E-6	-0.120000
182.932002	2.527728E-6	-0.080000
183.010052	1.262421E-6	-0.040000
183.088126	6.162444E-10	0.000000
183.235186	1.267212E-6	0.040000
183.436408	2.535275E-6	0.080000
183.514507	3.810037E-6	0.120000
183.592512	5.092633E-6	0.160000
183.669518	6.385437E-6	0.200000
183.746521	7.687697E-6	0.240000
183.823528	9.003886E-6	0.280000
183.900533	1.032636E-5	0.320000
183.977537	1.165542E-5	0.360000
184.173550	1.299997E-5	0.400000
184.251554	1.435244E-5	0.440000
184.328558	1.571896E-5	0.480000
184.404564	1.709055E-5	0.520000
184.481569	1.847214E-5	0.560000
184.559574	1.986337E-5	0.600000
184.635579	2.125976E-5	0.640000
184.713584	2.267044E-5	0.680000
184.791588	2.408764E-5	0.720000
184.868594	2.551775E-5	0.760000
184.944598	2.695023E-5	0.800000
185.022603	2.839923E-5	0.840000
185.098607	2.985380E-5	0.880000
185.177613	3.131264E-5	0.920000
185.254618	3.278648E-5	0.960000
185.332623	3.427364E-5	1.000000
185.408627	3.277935E-5	0.960000
185.486632	3.130105E-5	0.920000
185.562637	2.984482E-5	0.880000
185.639642	2.838503E-5	0.840000
185.716647	2.693905E-5	0.800000
185.793652	2.550611E-5	0.760000
185.870657	2.407776E-5	0.720000
185.947661	2.265814E-5	0.680000
186.025667	2.125585E-5	0.640000
186.102671	1.985412E-5	0.600000
186.179676	1.846523E-5	0.560000
186.256728	1.708238E-5	0.520000
186.334811	1.570909E-5	0.480000
186.409890	1.435352E-5	0.440000
186.487957	1.299983E-5	0.400000
186.564963	1.165454E-5	0.360000
186.641967	1.032109E-5	0.320000
186.718972	8.999102E-6	0.280000
186.860981	7.686901E-6	0.240000
186.937985	6.384681E-6	0.200000
187.014990	5.092209E-6	0.160000
187.091996	3.809424E-6	0.120000
187.169001	2.533984E-6	0.080000
187.246006	1.266777E-6	0.040000
187.323056	3.257044E-9	0.000000
187.468287	1.262097E-6	-0.040000
187.671371	2.526119E-6	-0.080000
187.748377	3.794366E-6	-0.120000
187.825381	5.070330E-6	-0.160000
187.903386	6.351986E-6	-0.200000
187.981390	7.644999E-6	-0.240000
188.058395	8.948919E-6	-0.280000
188.135401	1.026051E-5	-0.320000
188.213407	1.158495E-5	-0.360000
188.411566	1.291961E-5	-0.400000
188.488618	1.427339E-5	-0.440000
188.566669	1.564640E-5	-0.480000
188.643674	1.703476E-5	-0.520000
188.719682	1.845416E-5	-0.560000
188.797686	1.991526E-5	-0.600000
188.875689	2.141757E-5	-0.640000
188.951694	2.296906E-5	-0.680000
189.027699	2.456735E-5	-0.720000
189.104703	2.622869E-5	-0.760000
189.181708	2.794736E-5	-0.800000
189.259713	2.972347E-5	-0.840000
189.335719	3.154421E-5	-0.880000
189.412730	3.341550E-5	-0.920000
189.489728	3.533532E-5	-0.960000
189.567732	3.729712E-5	-1.000000
189.643738	3.539886E-5	-0.960000
189.720742	3.353192E-5	-0.920000
189.798790	3.169454E-5	-0.880000
189.874861	2.989485E-5	-0.840000
189.952939	2.813586E-5	-0.800000
190.028945	2.641829E-5	-0.760000
190.105949	2.474606E-5	-0.720000
190.183954	2.312576E-5	-0.680000
190.260960	2.155061E-5	-0.640000
190.337963	2.002431E-5	-0.600000
190.414968	1.853889E-5	-0.560000
190.491973	1.709399E-5	-0.520000
190.568979	1.568524E-5	-0.480000
190.645994	1.429662E-5	-0.440000
190.722989	1.293556E-5	-0.400000
190.800993	1.159880E-5	-0.360000
190.877997	1.026605E-5	-0.320000
190.956002	8.951634E-6	-0.280000
191.100013	7.646496E-6	-0.240000
191.177018	6.354755E-6	-0.200000
191.257023	5.071704E-6	-0.160000
191.334027	3.795855E-6	-0.120000
191.413033	2.526675E-6	-0.080000
191.490163	1.262014E-6	-0.040000
191.567254	6.045968E-10	0.000000
191.714262	1.267282E-6	0.040000
191.915274	2.535114E-6	0.080000
191.993279	3.809306E-6	0.120000
192.070293	5.093566E-6	0.160000
192.148288	6.384204E-6	0.200000
192.225294	7.687545E-6	0.240000
192.302347	9.001972E-6	0.280000
192.379457	1.032531E-5	0.320000
192.456522	1.165840E-5	0.360000
192.653617	1.300141E-5	0.400000
192.730681	1.435487E-5	0.440000
192.808719	1.571811E-5	0.480000
192.884782	1.708991E-5	0.520000
192.962850	1.847589E-5	0.560000
193.038848	1.986600E-5	0.600000
193.116852	2.126829E-5	0.640000
193.192858	2.267885E-5	0.680000
193.269862	2.409848E-5	0.720000
193.346867	2.551855E-5	0.760000
193.424872	2.694920E-5	0.800000
193.500877	2.839729E-5	0.840000
193.578882	2.985342E-5	0.880000
193.654886	3.131448E-5	0.920000
193.731891	3.278377E-5	0.960000
193.808897	3.426885E-5	1.000000
193.886901	3.277956E-5	0.960000
193.962907	3.130807E-5	0.920000
194.041911	2.983631E-5	0.880000
194.117916	2.839001E-5	0.840000
194.194921	2.694543E-5	0.800000
194.271960	2.549980E-5	0.760000
194.350060	2.408230E-5	0.720000
194.426114	2.266725E-5	0.680000
194.503178	2.125619E-5	0.640000
194.580185	1.986308E-5	0.600000
194.657189	1.846871E-5	0.560000
194.735194	1.708875E-5	0.520000
194.810200	1.571206E-5	0.480000
194.887208	1.435177E-5	0.440000
194.965209	1.299660E-5	0.400000
195.042213	1.165119E-5	0.360000
195.119218	1.031709E-5	0.320000
195.196223	8.996906E-6	0.280000
195.337233	7.684324E-6	0.240000
195.415237	6.382379E-6	0.200000
195.492242	5.089822E-6	0.160000
195.569248	3.808344E-6	0.120000
195.646253	2.534968E-6	0.080000
195.724257	1.266850E-6	0.040000
195.801322	3.228195E-9	0.000000
195.948435	1.261746E-6	-0.040000
196.149532	2.526401E-6	-0.080000
196.227537	3.794141E-6	-0.120000
196.304591	5.070192E-6	-0.160000
196.381661	6.352879E-6	-0.200000
196.457723	7.643517E-6	-0.240000
196.535923	8.946997E-6	-0.280000
196.612996	1.026071E-5	-0.320000
196.691001	1.158593E-5	-0.360000
196.888014	1.292107E-5	-0.400000
196.965018	1.427535E-5	-0.440000
197.042024	1.564278E-5	-0.480000
197.119029	1.703362E-5	-0.520000
197.196037	1.845614E-5	-0.560000
197.273038	1.991231E-5	-0.600000
197.350049	2.140872E-5	-0.640000
197.427048	2.296654E-5	-0.680000
197.504089	2.456249E-5	-0.720000
197.581170	2.622464E-5	-0.760000
197.658236	2.794166E-5	-0.800000
197.735415	2.971898E-5	-0.840000
197.812477	3.154304E-5	-0.880000
197.889552	3.341964E-5	-0.920000
197.967622	3.533579E-5	-0.960000
198.044673	3.729771E-5	-1.000000
198.121680	3.540199E-5	-0.960000
198.198706	3.353017E-5	-0.920000
198.274758	3.169722E-5	-0.880000
198.351798	2.989713E-5	-0.840000
198.428850	2.813211E-5	-0.800000
198.505903	2.642335E-5	-0.760000
198.582909	2.475226E-5	-0.720000
198.659914	2.312314E-5	-0.680000
198.738920	2.154879E-5	-0.640000
198.815936	2.002161E-5	-0.600000
198.894009	1.853400E-5	-0.560000
198.970006	1.708800E-5	-0.520000
199.047016	1.567833E-5	-0.480000
199.124016	1.429466E-5	-0.440000
199.202021	1.293669E-5	-0.400000
199.278073	1.159523E-5	-0.360000
199.355168	1.026568E-5	-0.320000
199.432258	8.951549E-6	-0.280000
199.572359	7.648434E-6	-0.240000
199.650365	6.355172E-6	-0.200000
199.727369	5.071846E-6	-0.160000
199.804374	3.796092E-6	-0.120000
199.881379	2.526607E-6	-0.080000
199.959384	1.261790E-6	-0.040000
200.036389	6.204928E-10	0.000000
200.182398	1.267503E-6	0.040000
200.383545	2.536062E-6	0.080000
200.461564	3.810329E-6	0.120000
200.540622	5.092749E-6	0.160000
200.617621	6.384119E-6	0.200000
200.695626	7.685776E-6	0.240000
200.772632	9.000076E-6	0.280000
200.849636	1.032415E-5	0.320000
200.926641	1.165978E-5	0.360000
201.122653	1.300196E-5	0.400000
201.199658	1.435501E-5	0.440000
201.276664	1.572517E-5	0.480000
201.352668	1.709949E-5	0.520000
201.430673	1.848153E-5	0.560000
201.507679	1.987134E-5	0.600000
201.584682	2.127204E-5	0.640000
201.662687	2.268129E-5	0.680000
201.739693	2.410023E-5	0.720000
201.818697	2.552179E-5	0.760000
201.896744	2.696194E-5	0.800000
201.972797	2.840607E-5	0.840000
202.051971	2.986543E-5	0.880000
202.129025	3.132351E-5	0.920000
202.206030	3.279170E-5	0.960000
202.282050	3.428453E-5	1.000000
202.360141	3.278499E-5	0.960000
202.437218	3.132162E-5	0.920000
202.513282	2.985740E-5	0.880000
202.590286	2.838759E-5	0.840000
202.667292	2.695547E-5	0.800000
202.744300	2.551423E-5	0.760000
202.821301	2.408501E-5	0.720000
202.898307	2.267201E-5	0.680000
202.975312	2.125654E-5	0.640000
203.052317	1.986039E-5	0.600000
203.128322	1.846913E-5	0.560000
203.205327	1.708757E-5	0.520000
203.282343	1.571839E-5	0.480000
203.360383	1.435481E-5	0.440000
203.437535	1.299893E-5	0.400000
203.514553	1.165394E-5	0.360000
203.593711	1.032252E-5	0.320000
203.670717	9.001300E-6	0.280000
203.813725	7.685859E-6	0.240000
203.890729	6.384389E-6	0.200000
203.968736	5.091403E-6	0.160000
204.045740	3.809042E-6	0.120000
204.122746	2.534718E-6	0.080000
204.200750	1.267010E-6	0.040000
204.277755	3.233349E-9	0.000000
204.424765	1.262503E-6	-0.040000
204.625778	2.526952E-6	-0.080000
204.703782	3.796934E-6	-0.120000
204.780787	5.070107E-6	-0.160000
204.858792	6.353568E-6	-0.200000
204.935797	7.645690E-6	-0.240000
205.012802	8.946028E-6	-0.280000
205.089809	1.026175E-5	-0.320000
205.166811	1.158400E-5	-0.360000
205.362824	1.292014E-5	-0.400000
205.439829	1.427727E-5	-0.440000
205.523924	1.564763E-5	-0.480000
205.600991	1.703906E-5	-0.520000
205.678093	1.845469E-5	-0.560000
205.755157	1.991344E-5	-0.600000
205.833162	2.141185E-5	-0.640000
205.911167	2.295813E-5	-0.680000
205.987172	2.456224E-5	-0.720000
206.065177	2.622891E-5	-0.760000
206.141182	2.794011E-5	-0.800000
206.220193	2.971560E-5	-0.840000
206.296191	3.153733E-5	-0.880000
206.373197	3.341180E-5	-0.920000
206.450202	3.532745E-5	-0.960000
206.528207	3.729022E-5	-1.000000
206.605212	3.539454E-5	-0.960000
206.680216	3.352367E-5	-0.920000
206.758221	3.168478E-5	-0.880000
206.836226	2.988894E-5	-0.840000
206.913231	2.812870E-5	-0.800000
206.990236	2.640745E-5	-0.760000
207.067241	2.474170E-5	-0.720000
207.144246	2.311897E-5	-0.680000
207.222250	2.154431E-5	-0.640000
207.299255	2.001841E-5	-0.600000
207.376259	1.853445E-5	-0.560000
207.454265	1.709085E-5	-0.520000
207.529366	1.568599E-5	-0.480000
207.607371	1.430301E-5	-0.440000
207.684376	1.294111E-5	-0.400000
207.762384	1.159781E-5	-0.360000
207.839386	1.026896E-5	-0.320000
207.916390	8.952946E-6	-0.280000
208.057400	7.651569E-6	-0.240000
208.135405	6.357958E-6	-0.200000
208.212409	5.073114E-6	-0.160000
208.289476	3.796955E-6	-0.120000
208.366541	2.526952E-6	-0.080000
208.444602	1.262046E-6	-0.040000
208.522666	5.917502E-10	0.000000
208.669675	1.267529E-6	0.040000
208.872688	2.534835E-6	0.080000
208.949693	3.809724E-6	0.120000
209.026699	5.092443E-6	0.160000
209.103703	6.384880E-6	0.200000
209.180708	7.688421E-6	0.240000
209.258714	9.002639E-6	0.280000
209.335720	1.032606E-5	0.320000
209.412723	1.165581E-5	0.360000
209.609735	1.300265E-5	0.400000
209.687741	1.435801E-5	0.440000
209.764745	1.572152E-5	0.480000
209.841751	1.709695E-5	0.520000
209.919755	1.847929E-5	0.560000
209.996759	1.986874E-5	0.600000
210.074765	2.126950E-5	0.640000
210.151770	2.267368E-5	0.680000
210.229774	2.409712E-5	0.720000
210.308825	2.552094E-5	0.760000
210.384865	2.694971E-5	0.800000
210.461938	2.840061E-5	0.840000
210.538976	2.985884E-5	0.880000
210.616981	3.131991E-5	0.920000
210.692987	3.279625E-5	0.960000
210.768990	3.427136E-5	1.000000
210.844995	3.277700E-5	0.960000
210.923000	3.130507E-5	0.920000
210.999005	2.984392E-5	0.880000
211.076010	2.839196E-5	0.840000
211.152014	2.694285E-5	0.800000
211.229020	2.551292E-5	0.760000
211.307024	2.408909E-5	0.720000
211.384029	2.266886E-5	0.680000
211.461034	2.126359E-5	0.640000
211.537039	1.986194E-5	0.600000
211.615044	1.846724E-5	0.560000
211.691049	1.708782E-5	0.520000
211.768054	1.571527E-5	0.480000
211.844059	1.435278E-5	0.440000
211.921063	1.299701E-5	0.400000
211.998068	1.165498E-5	0.360000
212.075073	1.032076E-5	0.320000
212.152079	9.000304E-6	0.280000
212.293087	7.685985E-6	0.240000
212.371093	6.384284E-6	0.200000
212.448096	5.091382E-6	0.160000
212.525185	3.808403E-6	0.120000
212.603254	2.534661E-6	0.080000
212.681318	1.266734E-6	0.040000
212.759388	3.216754E-9	0.000000
212.906398	1.262009E-6	-0.040000
213.107421	2.526436E-6	-0.080000
213.185415	3.795669E-6	-0.120000
213.263421	5.069851E-6	-0.160000
213.340425	6.354291E-6	-0.200000
213.418432	7.646079E-6	-0.240000
213.495435	8.948136E-6	-0.280000
213.572511	1.026361E-5	-0.320000
213.651575	1.158448E-5	-0.360000
213.847703	1.292168E-5	-0.400000
213.924707	1.427509E-5	-0.440000
214.001712	1.564175E-5	-0.480000
214.077717	1.703230E-5	-0.520000
214.153722	1.845371E-5	-0.560000
214.230726	1.991004E-5	-0.600000
214.307757	2.140936E-5	-0.640000
214.383831	2.295991E-5	-0.680000
214.460939	2.456265E-5	-0.720000
214.539989	2.622106E-5	-0.760000
214.616994	2.794325E-5	-0.800000
214.692998	2.971250E-5	-0.840000
214.770003	3.154127E-5	-0.880000
214.847008	3.340791E-5	-0.920000
214.924014	3.532425E-5	-0.960000
215.002017	3.728078E-5	-1.000000
215.078023	3.538410E-5	-0.960000
215.155028	3.351902E-5	-0.920000
215.233116	3.168894E-5	-0.880000
215.312298	2.988900E-5	-0.840000
215.390359	2.813190E-5	-0.800000
215.465430	2.641318E-5	-0.760000
215.543435	2.474412E-5	-0.720000
215.619439	2.312081E-5	-0.680000
215.697444	2.154977E-5	-0.640000
215.773449	2.002302E-5	-0.600000
215.849454	1.853814E-5	-0.560000
215.927458	1.709224E-5	-0.520000
216.004464	1.568580E-5	-0.480000
216.081469	1.429874E-5	-0.440000
216.158473	1.293953E-5	-0.400000
216.235478	1.159605E-5	-0.360000
216.312484	1.026808E-5	-0.320000
216.389488	8.951378E-6	-0.280000
216.531497	7.650062E-6	-0.240000
216.608501	6.357249E-6	-0.200000
216.685507	5.072569E-6	-0.160000
216.762511	3.796644E-6	-0.120000
216.839520	2.526999E-6	-0.080000
216.917522	1.262074E-6	-0.040000
216.994526	6.033476E-10	0.000000
217.141535	1.267662E-6	0.040000
217.343548	2.536099E-6	0.080000
217.421554	3.811040E-6	0.120000
217.498558	5.094526E-6	0.160000
217.576563	6.387309E-6	0.200000
217.653570	7.690391E-6	0.240000
217.730573	9.005656E-6	0.280000
217.807579	1.032551E-5	0.320000
217.884583	1.165794E-5	0.360000
218.081595	1.300158E-5	0.400000
218.159600	1.435636E-5	0.440000
218.236605	1.572151E-5	0.480000
218.312657	1.709394E-5	0.520000
218.390736	1.847780E-5	0.560000
218.466895	1.986139E-5	0.600000
218.543012	2.126555E-5	0.640000
218.620017	2.267779E-5	0.680000
218.696022	2.409454E-5	0.720000
218.773026	2.552495E-5	0.760000
218.849033	2.696874E-5	0.800000
218.927035	2.842013E-5	0.840000
219.003041	2.987489E-5	0.880000
219.080047	3.133408E-5	0.920000
219.157051	3.280734E-5	0.960000
219.235116	3.429258E-5	1.000000
219.311166	3.280446E-5	0.960000
219.389221	3.132479E-5	0.920000
219.466281	2.986118E-5	0.880000
219.543334	2.840507E-5	0.840000
219.619510	2.695938E-5	0.800000
219.696667	2.552545E-5	0.760000
219.773717	2.409918E-5	0.720000
219.850722	2.267640E-5	0.680000
219.927729	2.126304E-5	0.640000
220.004733	1.986351E-5	0.600000
220.082737	1.847082E-5	0.560000
220.158742	1.709311E-5	0.520000
220.236747	1.571996E-5	0.480000
220.312787	1.435673E-5	0.440000
220.390853	1.300150E-5	0.400000
220.467917	1.166000E-5	0.360000
220.544957	1.032497E-5	0.320000
220.622962	9.003137E-6	0.280000
220.764972	7.689032E-6	0.240000
220.841977	6.388306E-6	0.200000
220.918982	5.094531E-6	0.160000
220.996985	3.812115E-6	0.120000
221.073991	2.536013E-6	0.080000
221.151996	1.267811E-6	0.040000
221.230001	3.222494E-9	0.000000
221.377159	1.262801E-6	-0.040000
221.578363	2.527527E-6	-0.080000
221.656368	3.796564E-6	-0.120000
221.733373	5.073100E-6	-0.160000
221.811378	6.356622E-6	-0.200000
221.888382	7.650575E-6	-0.240000
221.965388	8.952376E-6	-0.280000
222.043394	1.026631E-5	-0.320000
222.122397	1.158907E-5	-0.360000
222.319409	1.292458E-5	-0.400000
222.398415	1.428030E-5	-0.440000
222.475421	1.565213E-5	-0.480000
222.551425	1.704445E-5	-0.520000
222.627429	1.846865E-5	-0.560000
222.705434	1.992731E-5	-0.600000
222.782443	2.142553E-5	-0.640000
222.859444	2.297396E-5	-0.680000
222.934449	2.457843E-5	-0.720000
223.012455	2.623841E-5	-0.760000
223.088460	2.794649E-5	-0.800000
223.166464	2.972627E-5	-0.840000
223.262470	3.154712E-5	-0.880000
223.340475	3.341910E-5	-0.920000
223.417479	3.534543E-5	-0.960000
223.494518	3.730557E-5	-1.000000
223.571567	3.541381E-5	-0.960000
223.648648	3.354346E-5	-0.920000
223.725653	3.169891E-5	-0.880000
223.803658	2.990290E-5	-0.840000
223.879663	2.814309E-5	-0.800000
223.956668	2.642780E-5	-0.760000
224.034673	2.475610E-5	-0.720000
224.110678	2.312994E-5	-0.680000
224.187683	2.155727E-5	-0.640000
224.264687	2.003250E-5	-0.600000
224.341693	1.854974E-5	-0.560000
224.418698	1.710604E-5	-0.520000
224.495702	1.569148E-5	-0.480000
224.572707	1.431002E-5	-0.440000
224.650719	1.294598E-5	-0.400000
224.728718	1.160394E-5	-0.360000
224.805722	1.027269E-5	-0.320000
224.882726	8.960123E-6	-0.280000
225.024737	7.657120E-6	-0.240000
225.101740	6.362308E-6	-0.200000
225.178745	5.077050E-6	-0.160000
225.255750	3.799928E-6	-0.120000
225.332755	2.529555E-6	-0.080000
225.409759	1.263359E-6	-0.040000
225.486765	5.714555E-10	0.000000
225.633774	1.268390E-6	0.040000
225.834787	2.537257E-6	0.080000
225.912792	3.811819E-6	0.120000
225.989797	5.095086E-6	0.160000
226.067802	6.387867E-6	0.200000
226.144807	7.693249E-6	0.240000
226.221811	9.006922E-6	0.280000
226.298853	1.033041E-5	0.320000
226.376893	1.166378E-5	0.360000
226.575026	1.300827E-5	0.400000
226.653268	1.436382E-5	0.440000
226.732516	1.573367E-5	0.480000
226.808521	1.710593E-5	0.520000
226.885525	1.848331E-5	0.560000
226.962532	1.988062E-5	0.600000
227.041536	2.127224E-5	0.640000
227.117541	2.268356E-5	0.680000
227.195546	2.410447E-5	0.720000
227.272551	2.553006E-5	0.760000
227.349634	2.696982E-5	0.800000
227.425918	2.841277E-5	0.840000
227.503922	2.987025E-5	0.880000
227.579927	3.133830E-5	0.920000
227.656932	3.280473E-5	0.960000
227.733938	3.429269E-5	1.000000
227.810977	3.279634E-5	0.960000
227.887996	3.132389E-5	0.920000
227.965104	2.986367E-5	0.880000
228.043103	2.840810E-5	0.840000
228.119109	2.696443E-5	0.800000
228.195114	2.552185E-5	0.760000
228.272119	2.409706E-5	0.720000
228.349200	2.267887E-5	0.680000
228.426300	2.127254E-5	0.640000
228.503401	1.987171E-5	0.600000
228.580408	1.847792E-5	0.560000
228.658413	1.709654E-5	0.520000
228.735418	1.572700E-5	0.480000
228.811422	1.436066E-5	0.440000
228.888427	1.300826E-5	0.400000
228.965433	1.166460E-5	0.360000
229.042438	1.033048E-5	0.320000
229.119442	9.012752E-6	0.280000
229.259451	7.695376E-6	0.240000
229.337456	6.391180E-6	0.200000
229.415461	5.096507E-6	0.160000
229.492465	3.813872E-6	0.120000
229.570471	2.537745E-6	0.080000
229.647477	1.267931E-6	0.040000
229.724480	3.216550E-9	0.000000
229.871490	1.262712E-6	-0.040000
230.072503	2.528105E-6	-0.080000
230.150508	3.799012E-6	-0.120000
230.227545	5.074291E-6	-0.160000
230.305623	6.357484E-6	-0.200000
230.383694	7.647945E-6	-0.240000
230.460797	8.951247E-6	-0.280000
230.538850	1.026585E-5	-0.320000
230.615949	1.158815E-5	-0.360000
230.813053	1.292657E-5	-0.400000
230.891056	1.427435E-5	-0.440000
230.969061	1.564849E-5	-0.480000
231.045103	1.704466E-5	-0.520000
231.123172	1.846544E-5	-0.560000
231.200242	1.991991E-5	-0.600000
231.275281	2.142295E-5	-0.640000
231.352293	2.296818E-5	-0.680000
231.430293	2.456695E-5	-0.720000
231.507320	2.623562E-5	-0.760000
231.582358	2.794795E-5	-0.800000
231.659434	2.971620E-5	-0.840000
231.737472	3.153963E-5	-0.880000
231.814489	3.341558E-5	-0.920000
231.891494	3.533236E-5	-0.960000
231.968499	3.729390E-5	-1.000000
232.044504	3.540217E-5	-0.960000
232.122509	3.353485E-5	-0.920000
232.198514	3.169654E-5	-0.880000
232.276518	2.989760E-5	-0.840000
232.352523	2.814025E-5	-0.800000
232.429527	2.642213E-5	-0.760000
232.507533	2.475009E-5	-0.720000
232.583538	2.312808E-5	-0.680000
232.660542	2.155636E-5	-0.640000
232.737556	2.002768E-5	-0.600000
232.814553	1.854418E-5	-0.560000
232.891558	1.709813E-5	-0.520000
232.969563	1.568928E-5	-0.480000
233.045577	1.430473E-5	-0.440000
233.123571	1.294229E-5	-0.400000
233.200577	1.160034E-5	-0.360000
233.278582	1.026887E-5	-0.320000
233.355587	8.953272E-6	-0.280000
233.496733	7.649290E-6	-0.240000
233.574802	6.355506E-6	-0.200000
233.651866	5.071142E-6	-0.160000
233.728871	3.797438E-6	-0.120000
233.805876	2.527446E-6	-0.080000
233.883881	1.262242E-6	-0.040000
233.960886	5.722547E-10	0.000000
234.107895	1.267957E-6	0.040000
234.308982	2.536052E-6	0.080000
234.387053	3.811358E-6	0.120000
234.465167	5.093003E-6	0.160000
234.543173	6.387527E-6	0.200000
234.621177	7.691497E-6	0.240000
234.699183	9.001745E-6	0.280000
234.777295	1.032772E-5	0.320000
234.855418	1.166081E-5	0.360000
235.051430	1.300462E-5	0.400000
235.129435	1.435790E-5	0.440000
235.206441	1.571984E-5	0.480000
235.282445	1.709996E-5	0.520000
235.360450	1.848007E-5	0.560000
235.436455	1.987015E-5	0.600000
235.514459	2.126917E-5	0.640000
235.590465	2.267509E-5	0.680000
235.667470	2.409565E-5	0.720000
235.745474	2.551870E-5	0.760000
235.821480	2.695668E-5	0.800000
235.898485	2.840264E-5	0.840000
235.976494	2.985823E-5	0.880000
236.053495	3.132614E-5	0.920000
236.129499	3.279729E-5	0.960000
236.207504	3.427748E-5	1.000000
236.283560	3.278713E-5	0.960000
236.361614	3.131845E-5	0.920000
236.437689	2.986010E-5	0.880000
236.514729	2.840142E-5	0.840000
236.591795	2.695247E-5	0.800000
236.668800	2.551676E-5	0.760000
236.744805	2.408767E-5	0.720000
236.822809	2.266570E-5	0.680000
236.898814	2.126140E-5	0.640000
236.973819	1.986479E-5	0.600000
237.050824	1.847468E-5	0.560000
237.127829	1.708823E-5	0.520000
237.205833	1.570939E-5	0.480000
237.282838	1.434788E-5	0.440000
237.359843	1.299423E-5	0.400000
237.437849	1.165221E-5	0.360000
237.514853	1.031788E-5	0.320000
237.592858	8.998986E-6	0.280000
237.734867	7.685750E-6	0.240000
237.811872	6.382394E-6	0.200000
237.890877	5.090145E-6	0.160000
237.967883	3.808729E-6	0.120000
238.044887	2.534304E-6	0.080000
238.122892	1.266602E-6	0.040000
238.201897	3.181908E-9	0.000000
238.348906	1.261834E-6	-0.040000
238.550920	2.526324E-6	-0.080000
238.627924	3.795748E-6	-0.120000
238.705928	5.070391E-6	-0.160000
238.784934	6.357307E-6	-0.200000
238.861939	7.645626E-6	-0.240000
238.940944	8.947951E-6	-0.280000
239.018950	1.026075E-5	-0.320000
239.096954	1.158649E-5	-0.360000
239.293966	1.292339E-5	-0.400000
239.372971	1.427171E-5	-0.440000
239.450976	1.564546E-5	-0.480000
239.528029	1.704572E-5	-0.520000
239.605224	1.845944E-5	-0.560000
239.683228	1.992143E-5	-0.600000
239.759233	2.141760E-5	-0.640000
239.837238	2.296156E-5	-0.680000
239.914244	2.457329E-5	-0.720000
239.990248	2.623329E-5	-0.760000
240.068253	2.795548E-5	-0.800000
240.145258	2.972785E-5	-0.840000
240.222264	3.154669E-5	-0.880000
240.300314	3.342111E-5	-0.920000
240.377366	3.534020E-5	-0.960000
240.454395	3.729829E-5	-1.000000
240.529401	3.541037E-5	-0.960000
240.606405	3.354475E-5	-0.920000
240.683411	3.170095E-5	-0.880000
240.760415	2.990474E-5	-0.840000
240.837420	2.813811E-5	-0.800000
240.914425	2.642053E-5	-0.760000
240.991430	2.474780E-5	-0.720000
241.069435	2.312723E-5	-0.680000
241.146439	2.155446E-5	-0.640000
241.224444	2.002546E-5	-0.600000
241.300475	1.853991E-5	-0.560000
241.378528	1.709493E-5	-0.520000
241.455592	1.568563E-5	-0.480000
241.532658	1.430171E-5	-0.440000
241.609687	1.293779E-5	-0.400000
241.687691	1.159752E-5	-0.360000
241.764697	1.026731E-5	-0.320000
241.841702	8.953511E-6	-0.280000
241.984710	7.652255E-6	-0.240000
242.061715	6.357787E-6	-0.200000
242.139720	5.072249E-6	-0.160000
242.216726	3.797067E-6	-0.120000
242.293814	2.527114E-6	-0.080000
242.371891	1.262007E-6	-0.040000
242.448946	5.592077E-10	0.000000
242.597034	1.267196E-6	0.040000
242.798047	2.535279E-6	0.080000
242.876053	3.808579E-6	0.120000
242.953057	5.090746E-6	0.160000
243.031063	6.382697E-6	0.200000
243.108067	7.687014E-6	0.240000
243.185072	9.001243E-6	0.280000
243.262077	1.032201E-5	0.320000
243.339082	1.165475E-5	0.360000
243.536094	1.300054E-5	0.400000
243.614099	1.435636E-5	0.440000
243.691104	1.572127E-5	0.480000
243.767108	1.709230E-5	0.520000
243.844114	1.847869E-5	0.560000
243.921118	1.987123E-5	0.600000
243.998123	2.127467E-5	0.640000
244.076129	2.268069E-5	0.680000
244.152133	2.409532E-5	0.720000
244.229138	2.552284E-5	0.760000
244.305191	2.695845E-5	0.800000
244.383257	2.840432E-5	0.840000
244.461309	2.986040E-5	0.880000
244.538376	3.131897E-5	0.920000
244.614381	3.279161E-5	0.960000
244.692386	3.427778E-5	1.000000
244.769391	3.279283E-5	0.960000
244.846395	3.130557E-5	0.920000
244.923401	2.984992E-5	0.880000
245.000405	2.839399E-5	0.840000
245.077410	2.694121E-5	0.800000
245.153415	2.551707E-5	0.760000
245.230420	2.408278E-5	0.720000
245.307424	2.266993E-5	0.680000
245.384429	2.125812E-5	0.640000
245.460433	1.985919E-5	0.600000
245.539503	1.846771E-5	0.560000
245.616568	1.708330E-5	0.520000
245.692631	1.571377E-5	0.480000
245.770685	1.434856E-5	0.440000
245.847726	1.299583E-5	0.400000
245.923821	1.165417E-5	0.360000
246.000870	1.032220E-5	0.320000
246.077909	9.001806E-6	0.280000
246.219918	7.685398E-6	0.240000
246.296947	6.385144E-6	0.200000
246.373056	5.091899E-6	0.160000
246.451107	3.808231E-6	0.120000
246.528223	2.534403E-6	0.080000
246.606229	1.266717E-6	0.040000
246.684233	3.186506E-9	0.000000
246.830243	1.261514E-6	-0.040000
247.032255	2.525294E-6	-0.080000
247.110260	3.794102E-6	-0.120000
247.187265	5.068793E-6	-0.160000
247.265270	6.352588E-6	-0.200000
247.344282	7.644543E-6	-0.240000
247.421336	8.946779E-6	-0.280000
247.499344	1.025970E-5	-0.320000
247.577424	1.158664E-5	-0.360000
247.774523	1.292165E-5	-0.400000
247.852528	1.427341E-5	-0.440000
247.929533	1.564295E-5	-0.480000
248.005538	1.703519E-5	-0.520000
248.083543	1.845217E-5	-0.560000
248.160548	1.990633E-5	-0.600000
248.236553	2.141566E-5	-0.640000
248.313609	2.296106E-5	-0.680000
248.390677	2.456540E-5	-0.720000
248.468729	2.622200E-5	-0.760000
248.544778	2.793592E-5	-0.800000
248.622783	2.977072E-5	-0.840000
248.698788	3.159453E-5	-0.880000
248.775794	3.346430E-5	-0.920000
248.853798	3.534974E-5	-0.960000
248.930804	3.733264E-5	-1.000000
249.006808	3.544371E-5	-0.960000
249.084871	3.355690E-5	-0.920000
249.160925	3.169737E-5	-0.880000
249.238989	2.989729E-5	-0.840000
249.316062	2.813471E-5	-0.800000
249.394066	2.642283E-5	-0.760000
249.471072	2.477351E-5	-0.720000
249.550077	2.315206E-5	-0.680000
249.627082	2.156848E-5	-0.640000
249.705086	2.004185E-5	-0.600000
249.782091	1.855253E-5	-0.560000
249.858106	1.710272E-5	-0.520000
249.935111	1.570218E-5	-0.480000
250.013105	1.431216E-5	-0.440000
250.090112	1.294042E-5	-0.400000
250.167116	1.160206E-5	-0.360000
250.244168	1.027075E-5	-0.320000
250.322222	8.954489E-6	-0.280000
250.465318	7.650742E-6	-0.240000
250.544324	6.357341E-6	-0.200000
250.621329	5.072336E-6	-0.160000
250.698341	3.795666E-6	-0.120000
250.777339	2.526583E-6	-0.080000
250.854343	1.261994E-6	-0.040000
250.931353	5.580587E-10	0.000000
251.078358	1.267071E-6	0.040000
251.279370	2.534488E-6	0.080000
251.357375	3.809982E-6	0.120000
251.434469	5.092040E-6	0.160000
251.512535	6.385545E-6	0.200000
251.589596	7.684453E-6	0.240000
251.666647	8.999201E-6	0.280000
251.744652	1.032159E-5	0.320000
251.821657	1.165455E-5	0.360000
252.018671	1.299902E-5	0.400000
252.096674	1.434905E-5	0.440000
252.173680	1.571267E-5	0.480000
252.250733	1.708858E-5	0.520000
252.326791	1.847139E-5	0.560000
252.404886	1.986286E-5	0.600000
252.481891	2.126479E-5	0.640000
252.558896	2.267220E-5	0.680000
252.633901	2.409097E-5	0.720000
252.711918	2.552502E-5	0.760000
252.789038	2.695725E-5	0.800000
252.866107	2.839648E-5	0.840000
252.941175	2.985843E-5	0.880000
253.017241	3.132010E-5	0.920000
253.094245	3.279155E-5	0.960000
253.171250	3.428533E-5	1.000000
253.248255	3.278518E-5	0.960000
253.325260	3.131208E-5	0.920000
253.401265	2.984588E-5	0.880000
253.479270	2.839057E-5	0.840000
253.555345	2.694718E-5	0.800000
253.632398	2.550844E-5	0.760000
253.709466	2.408547E-5	0.720000
253.787546	2.266703E-5	0.680000
253.863551	2.125751E-5	0.640000
253.941556	1.985654E-5	0.600000
254.017560	1.846542E-5	0.560000
254.095566	1.708252E-5	0.520000
254.172570	1.571024E-5	0.480000
254.249589	1.435056E-5	0.440000
254.326581	1.299709E-5	0.400000
254.404598	1.165446E-5	0.360000
254.481590	1.032023E-5	0.320000
254.559596	8.999092E-6	0.280000
254.701604	7.685097E-6	0.240000
254.778610	6.382439E-6	0.200000
254.855613	5.089704E-6	0.160000
254.934618	3.807845E-6	0.120000
255.012627	2.534031E-6	0.080000
255.090629	1.266581E-6	0.040000
255.169633	3.204952E-9	0.000000
255.318643	1.261789E-6	-0.040000
255.521728	2.525696E-6	-0.080000
255.598802	3.794124E-6	-0.120000
255.676807	5.069284E-6	-0.160000
255.754812	6.351354E-6	-0.200000
255.832859	7.643458E-6	-0.240000
255.909898	8.945248E-6	-0.280000
255.987969	1.026022E-5	-0.320000
256.065062	1.158118E-5	-0.360000
256.263074	1.291908E-5	-0.400000
256.340078	1.426998E-5	-0.440000
256.417085	1.564178E-5	-0.480000
256.494089	1.703098E-5	-0.520000
256.572171	1.845368E-5	-0.560000
256.650239	1.991121E-5	-0.600000
256.727298	2.140777E-5	-0.640000
256.805337	2.295733E-5	-0.680000
256.881342	2.456137E-5	-0.720000
256.957347	2.621895E-5	-0.760000
257.034352	2.793327E-5	-0.800000
257.112357	2.969946E-5	-0.840000
257.188362	3.152855E-5	-0.880000
257.265367	3.340705E-5	-0.920000
257.343371	3.532173E-5	-0.960000
257.419377	3.728257E-5	-1.000000
257.497382	3.539446E-5	-0.960000
257.574386	3.352776E-5	-0.920000
257.650391	3.168406E-5	-0.880000
257.727396	2.989073E-5	-0.840000
257.804401	2.813134E-5	-0.800000
257.881406	2.641493E-5	-0.760000
257.958410	2.474492E-5	-0.720000
258.036415	2.312418E-5	-0.680000
258.112420	2.154955E-5	-0.640000
258.189425	2.002080E-5	-0.600000
258.266430	1.853604E-5	-0.560000
258.344525	1.709659E-5	-0.520000
258.421599	1.568529E-5	-0.480000
258.497661	1.429884E-5	-0.440000
258.575714	1.293588E-5	-0.400000
258.651719	1.159312E-5	-0.360000
258.728723	1.026738E-5	-0.320000
258.805728	8.949211E-6	-0.280000
258.947737	7.646539E-6	-0.240000
259.024743	6.355519E-6	-0.200000
259.102746	5.069367E-6	-0.160000
259.179752	3.794424E-6	-0.120000
259.256757	2.526300E-6	-0.080000
259.334762	1.262044E-6	-0.040000
259.412766	5.704553E-10	0.000000
259.559776	1.266989E-6	0.040000
259.760789	2.534870E-6	0.080000
259.838794	3.808464E-6	0.120000
259.916799	5.090839E-6	0.160000
259.994804	6.383877E-6	0.200000
260.071808	7.686670E-6	0.240000
260.150814	8.999032E-6	0.280000
260.227819	1.032152E-5	0.320000
260.304880	1.165448E-5	0.360000
260.501103	1.299340E-5	0.400000
260.578171	1.435467E-5	0.440000
260.655177	1.571817E-5	0.480000
260.732182	1.708910E-5	0.520000
260.809186	1.847179E-5	0.560000
260.887192	1.986657E-5	0.600000
260.963196	2.126657E-5	0.640000
261.040202	2.267289E-5	0.680000
261.117206	2.408756E-5	0.720000
261.195224	2.551907E-5	0.760000
261.271229	2.695215E-5	0.800000
261.349235	2.839081E-5	0.840000
261.424238	2.984347E-5	0.880000
261.502249	3.131200E-5	0.920000
261.579248	3.277929E-5	0.960000
261.657254	3.426367E-5	1.000000
261.734258	3.277614E-5	0.960000
261.811263	3.131223E-5	0.920000
261.887268	2.984452E-5	0.880000
261.964273	2.839068E-5	0.840000
262.041277	2.694283E-5	0.800000
262.117283	2.550837E-5	0.760000
262.194287	2.408924E-5	0.720000
262.272292	2.266426E-5	0.680000
262.349320	2.125663E-5	0.640000
262.426339	1.985971E-5	0.600000
262.503411	1.847070E-5	0.560000
262.579463	1.708893E-5	0.520000
262.656492	1.570989E-5	0.480000
262.733497	1.435364E-5	0.440000
262.811541	1.299772E-5	0.400000
262.888610	1.165394E-5	0.360000
262.965686	1.031910E-5	0.320000
263.042787	8.999778E-6	0.280000
263.182795	7.684801E-6	0.240000
263.260800	6.382714E-6	0.200000
263.337806	5.092083E-6	0.160000
263.414810	3.808763E-6	0.120000
263.492815	2.534083E-6	0.080000
263.569821	1.266236E-6	0.040000
263.646825	3.229945E-9	0.000000
263.793834	1.261243E-6	-0.040000
263.995847	2.524410E-6	-0.080000
264.072853	3.793296E-6	-0.120000
264.150857	5.068359E-6	-0.160000
264.227861	6.350924E-6	-0.200000
264.305928	7.644361E-6	-0.240000
264.382977	8.945028E-6	-0.280000
264.460030	1.025619E-5	-0.320000
264.538170	1.158061E-5	-0.360000
264.736183	1.291983E-5	-0.400000
264.813190	1.427251E-5	-0.440000
264.890192	1.564172E-5	-0.480000
264.967197	1.703203E-5	-0.520000
265.043202	1.844506E-5	-0.560000
265.120207	1.990349E-5	-0.600000
265.197212	2.140633E-5	-0.640000
265.273217	2.295133E-5	-0.680000
265.350224	2.455591E-5	-0.720000
265.427234	2.621963E-5	-0.760000
265.504231	2.793639E-5	-0.800000
265.582236	2.970353E-5	-0.840000
265.658242	3.153086E-5	-0.880000
265.735246	3.340662E-5	-0.920000
265.812251	3.532634E-5	-0.960000
265.890255	3.728717E-5	-1.000000
265.966261	3.539812E-5	-0.960000
266.044266	3.352989E-5	-0.920000
266.120274	3.169115E-5	-0.880000
266.198275	2.989180E-5	-0.840000
266.274280	2.812794E-5	-0.800000
266.351285	2.641181E-5	-0.760000
266.428290	2.474242E-5	-0.720000
266.505295	2.311762E-5	-0.680000
266.582300	2.154333E-5	-0.640000
266.660305	2.001707E-5	-0.600000
266.736310	1.853430E-5	-0.560000
266.813314	1.708758E-5	-0.520000
266.891319	1.567705E-5	-0.480000
266.967324	1.429412E-5	-0.440000
267.045331	1.293356E-5	-0.400000
267.122334	1.159081E-5	-0.360000
267.199339	1.026173E-5	-0.320000
267.276344	8.948953E-6	-0.280000
267.418354	7.644991E-6	-0.240000
267.495357	6.352813E-6	-0.200000
267.572361	5.067321E-6	-0.160000
267.650367	3.792913E-6	-0.120000
267.727373	2.524860E-6	-0.080000
267.805378	1.261067E-6	-0.040000
267.883382	5.708052E-10	0.000000
268.029395	1.266435E-6	0.040000
268.230405	2.533038E-6	0.080000
268.308480	3.807684E-6	0.120000
268.385543	5.089864E-6	0.160000
268.463581	6.380960E-6	0.200000
268.541601	7.681550E-6	0.240000
268.618619	8.993475E-6	0.280000
268.696623	1.031921E-5	0.320000
268.774629	1.164885E-5	0.360000
268.970642	1.299031E-5	0.400000
269.048646	1.434721E-5	0.440000
269.125650	1.571277E-5	0.480000
269.202656	1.708419E-5	0.520000
269.278661	1.847115E-5	0.560000
269.355666	1.985892E-5	0.600000
269.432671	2.126319E-5	0.640000
269.510675	2.267089E-5	0.680000
269.587680	2.409327E-5	0.720000
269.663729	2.551612E-5	0.760000
269.741750	2.695248E-5	0.800000
269.818990	2.839040E-5	0.840000
269.895007	2.985430E-5	0.880000
269.972013	3.131424E-5	0.920000
270.048018	3.278940E-5	0.960000
270.126022	3.426329E-5	1.000000
270.204027	3.277675E-5	0.960000
270.280032	3.129817E-5	0.920000
270.358037	2.983728E-5	0.880000
270.435043	2.838441E-5	0.840000
270.512046	2.693735E-5	0.800000
270.589051	2.551076E-5	0.760000
270.666056	2.408002E-5	0.720000
270.744062	2.265990E-5	0.680000
270.821066	2.125578E-5	0.640000
270.899072	1.985519E-5	0.600000
270.977077	1.846580E-5	0.560000
271.054081	1.708462E-5	0.520000
271.132086	1.571117E-5	0.480000
271.209091	1.434362E-5	0.440000
271.286095	1.299302E-5	0.400000
271.362101	1.164903E-5	0.360000
271.439105	1.031925E-5	0.320000
271.515418	8.995426E-6	0.280000
271.656439	7.681548E-6	0.240000
271.733444	6.379410E-6	0.200000
271.810449	5.087797E-6	0.160000
271.887453	3.806274E-6	0.120000
271.964459	2.533146E-6	0.080000
272.041463	1.266214E-6	0.040000
272.118467	3.204554E-9	0.000000
272.264486	1.261557E-6	-0.040000
272.465490	2.524434E-6	-0.080000
272.543521	3.793498E-6	-0.120000
272.621632	5.068722E-6	-0.160000
272.699698	6.352362E-6	-0.200000
272.776727	7.643840E-6	-0.240000
272.855815	8.942295E-6	-0.280000
272.933821	1.025730E-5	-0.320000
273.010824	1.157792E-5	-0.360000
273.207838	1.291455E-5	-0.400000
273.284842	1.427154E-5	-0.440000
273.361847	1.563928E-5	-0.480000
273.437853	1.703054E-5	-0.520000
273.515857	1.844895E-5	-0.560000
273.591862	1.990577E-5	-0.600000
273.668867	2.140896E-5	-0.640000
273.745872	2.295638E-5	-0.680000
273.823877	2.456024E-5	-0.720000
273.900882	2.621981E-5	-0.760000
273.976886	2.794008E-5	-0.800000
274.054891	2.971477E-5	-0.840000
274.132896	3.153466E-5	-0.880000
274.209902	3.341322E-5	-0.920000
274.287906	3.533368E-5	-0.960000
274.363970	3.728607E-5	-1.000000
274.440136	3.539333E-5	-0.960000
274.518202	3.352276E-5	-0.920000
274.594337	3.168913E-5	-0.880000
274.672345	2.989218E-5	-0.840000
274.748351	2.813029E-5	-0.800000
274.826355	2.641707E-5	-0.760000
274.903359	2.474218E-5	-0.720000
274.979365	2.312166E-5	-0.680000
275.056370	2.154368E-5	-0.640000
275.133374	2.002493E-5	-0.600000
275.211379	1.853699E-5	-0.560000
275.287384	1.709319E-5	-0.520000
275.364389	1.567930E-5	-0.480000
275.441393	1.429721E-5	-0.440000
275.519460	1.293483E-5	-0.400000
275.597518	1.159066E-5	-0.360000
275.674575	1.026285E-5	-0.320000
275.752655	8.947624E-6	-0.280000
275.893669	7.643815E-6	-0.240000
275.971668	6.352350E-6	-0.200000
276.048672	5.069084E-6	-0.160000
276.125679	3.794586E-6	-0.120000
276.202683	2.525145E-6	-0.080000
276.280687	1.261707E-6	-0.040000
276.357692	5.725549E-10	0.000000
276.503703	1.267027E-6	0.040000
276.706715	2.534861E-6	0.080000
276.783720	3.808477E-6	0.120000
276.860727	5.090582E-6	0.160000
276.938730	6.382354E-6	0.200000
277.015734	7.683088E-6	0.240000
277.092739	8.994739E-6	0.280000
277.169745	1.031584E-5	0.320000
277.246748	1.164854E-5	0.360000
277.443909	1.299712E-5	0.400000
277.519940	1.435035E-5	0.440000
277.596997	1.571335E-5	0.480000
277.673027	1.708308E-5	0.520000
277.750073	1.846745E-5	0.560000
277.827103	1.985490E-5	0.600000
277.904129	2.125490E-5	0.640000
277.981133	2.266159E-5	0.680000
278.058142	2.407939E-5	0.720000
278.135143	2.550099E-5	0.760000
278.212156	2.694458E-5	0.800000
278.289160	2.839138E-5	0.840000
278.366157	2.984582E-5	0.880000
278.443162	3.129647E-5	0.920000
278.520197	3.277341E-5	0.960000
278.596273	3.425487E-5	1.000000
278.674333	3.277528E-5	0.960000
278.751374	3.129563E-5	0.920000
278.828378	2.983488E-5	0.880000
278.904384	2.837758E-5	0.840000
278.981395	2.693733E-5	0.800000
279.059393	2.550035E-5	0.760000
279.134398	2.407597E-5	0.720000
279.211403	2.265811E-5	0.680000
279.288409	2.124756E-5	0.640000
279.365413	1.985148E-5	0.600000
279.441418	1.845855E-5	0.560000
279.518423	1.707246E-5	0.520000
279.595427	1.569822E-5	0.480000
279.672433	1.433997E-5	0.440000
279.750440	1.298584E-5	0.400000
279.828442	1.164754E-5	0.360000
279.905447	1.031317E-5	0.320000
279.982453	8.991706E-6	0.280000
280.124461	7.680020E-6	0.240000
280.201466	6.378226E-6	0.200000
280.278495	5.088324E-6	0.160000
280.355559	3.806680E-6	0.120000
280.434603	2.532962E-6	0.080000
280.511664	1.266102E-6	0.040000
280.588841	3.195053E-9	0.000000
280.735957	1.261395E-6	-0.040000
280.938018	2.524696E-6	-0.080000
281.015022	3.791559E-6	-0.120000
281.092031	5.067728E-6	-0.160000
281.170033	6.352960E-6	-0.200000
281.247050	7.640885E-6	-0.240000
281.324121	8.942791E-6	-0.280000
281.402174	1.025680E-5	-0.320000
281.479224	1.158189E-5	-0.360000
281.677302	1.291562E-5	-0.400000
281.755307	1.426621E-5	-0.440000
281.832312	1.563468E-5	-0.480000
281.908317	1.702751E-5	-0.520000
281.985322	1.844965E-5	-0.560000
282.062327	1.990806E-5	-0.600000
282.140331	2.140836E-5	-0.640000
282.217337	2.295341E-5	-0.680000
282.293351	2.456049E-5	-0.720000
282.370347	2.622759E-5	-0.760000
282.447352	2.793712E-5	-0.800000
282.525357	2.970500E-5	-0.840000
282.602407	3.153705E-5	-0.880000
282.679479	3.341066E-5	-0.920000
282.755549	3.532514E-5	-0.960000
282.832566	3.728619E-5	-1.000000
282.907572	3.539684E-5	-0.960000
282.984575	3.353229E-5	-0.920000
283.062581	3.169346E-5	-0.880000
283.139585	2.988898E-5	-0.840000
283.215591	2.813212E-5	-0.800000
283.293595	2.641390E-5	-0.760000
283.370600	2.474399E-5	-0.720000
283.446606	2.311892E-5	-0.680000
283.523611	2.154547E-5	-0.640000
283.601615	2.001937E-5	-0.600000
283.676620	1.853416E-5	-0.560000
283.753625	1.708581E-5	-0.520000
283.831630	1.567466E-5	-0.480000
283.907634	1.429214E-5	-0.440000
283.985642	1.292821E-5	-0.400000
284.062645	1.158868E-5	-0.360000
284.140649	1.025996E-5	-0.320000
284.217654	8.947017E-6	-0.280000
284.359666	7.645282E-6	-0.240000
284.437668	6.355127E-6	-0.200000
284.514721	5.071635E-6	-0.160000
284.592774	3.794486E-6	-0.120000
284.670838	2.526354E-6	-0.080000
284.748861	1.261690E-6	-0.040000
284.825866	5.980489E-10	0.000000
284.971874	1.266713E-6	0.040000
285.172888	2.534039E-6	0.080000
285.250893	3.807585E-6	0.120000
285.327956	5.090660E-6	0.160000
285.406018	6.381238E-6	0.200000
285.483081	7.683535E-6	0.240000
285.561175	8.995719E-6	0.280000
285.639179	1.032080E-5	0.320000
285.716185	1.165174E-5	0.360000
285.913198	1.299500E-5	0.400000
285.991202	1.434902E-5	0.440000
286.069207	1.571051E-5	0.480000
286.146213	1.708072E-5	0.520000
286.224222	1.846459E-5	0.560000
286.301221	1.985688E-5	0.600000
286.378226	2.126003E-5	0.640000
286.455232	2.266324E-5	0.680000
286.533237	2.408770E-5	0.720000
286.608242	2.551509E-5	0.760000
286.686246	2.694841E-5	0.800000
286.764251	2.838945E-5	0.840000
286.841259	2.985054E-5	0.880000
286.918262	3.130602E-5	0.920000
286.996265	3.277825E-5	0.960000
287.073271	3.426866E-5	1.000000
287.151276	3.277670E-5	0.960000
287.250282	3.130055E-5	0.920000
287.328287	2.984151E-5	0.880000
287.405291	2.838416E-5	0.840000
287.481344	2.693499E-5	0.800000
287.557398	2.550573E-5	0.760000
287.635403	2.407517E-5	0.720000
287.711407	2.266242E-5	0.680000
287.788413	2.126027E-5	0.640000
287.866470	1.985468E-5	0.600000
287.943500	1.846668E-5	0.560000
288.020564	1.708592E-5	0.520000
288.096604	1.570925E-5	0.480000
288.173610	1.434925E-5	0.440000
288.251614	1.299297E-5	0.400000
288.328688	1.165331E-5	0.360000
288.405728	1.031777E-5	0.320000
288.482756	8.994026E-6	0.280000
288.624835	7.683009E-6	0.240000
288.701840	6.383927E-6	0.200000
288.778846	5.088556E-6	0.160000
288.855850	3.807037E-6	0.120000
288.932855	2.533644E-6	0.080000
289.010860	1.266110E-6	0.040000
289.087865	3.195154E-9	0.000000
289.234874	1.261134E-6	-0.040000
289.437114	2.524548E-6	-0.080000
289.515178	3.793833E-6	-0.120000
289.593229	5.069271E-6	-0.160000
289.671236	6.350755E-6	-0.200000
289.748239	7.643656E-6	-0.240000
289.825244	8.944493E-6	-0.280000
289.902250	1.026214E-5	-0.320000
289.979254	1.158178E-5	-0.360000
290.176267	1.291750E-5	-0.400000
290.254273	1.426710E-5	-0.440000
290.331327	1.563705E-5	-0.480000
290.409406	1.703212E-5	-0.520000
290.486468	1.845798E-5	-0.560000
290.564512	1.991147E-5	-0.600000
290.640517	2.140997E-5	-0.640000
290.717522	2.295906E-5	-0.680000
290.795527	2.456056E-5	-0.720000
290.872581	2.622254E-5	-0.760000
290.950631	2.793228E-5	-0.800000
291.027712	2.971202E-5	-0.840000
291.104855	3.153466E-5	-0.880000
291.181974	3.340759E-5	-0.920000
291.257979	3.531968E-5	-0.960000
291.335985	3.728658E-5	-1.000000
291.411990	3.538866E-5	-0.960000
291.489994	3.352397E-5	-0.920000
291.570072	3.168591E-5	-0.880000
291.647150	2.988391E-5	-0.840000
291.725198	2.812570E-5	-0.800000
291.803238	2.640845E-5	-0.760000
291.878358	2.473524E-5	-0.720000
291.956362	2.311288E-5	-0.680000
292.032368	2.153830E-5	-0.640000
292.109373	2.001103E-5	-0.600000
292.186378	1.853024E-5	-0.560000
292.264382	1.708949E-5	-0.520000
292.340387	1.568084E-5	-0.480000
292.418392	1.429982E-5	-0.440000
292.495397	1.293387E-5	-0.400000
292.572426	1.159222E-5	-0.360000
292.649514	1.026169E-5	-0.320000
292.726592	8.948360E-6	-0.280000
292.868682	7.642748E-6	-0.240000
292.946688	6.352482E-6	-0.200000
293.023693	5.069080E-6	-0.160000
293.100698	3.794134E-6	-0.120000
293.177702	2.525374E-6	-0.080000
293.255707	1.261366E-6	-0.040000
293.332736	6.098453E-10	0.000000
293.479907	1.266965E-6	0.040000
293.681031	2.534335E-6	0.080000
293.759037	3.808615E-6	0.120000
293.836040	5.091842E-6	0.160000
293.913045	6.383008E-6	0.200000
293.990051	7.687158E-6	0.240000
294.067055	8.998768E-6	0.280000
294.144061	1.032206E-5	0.320000
294.222065	1.165564E-5	0.360000
294.419077	1.299754E-5	0.400000
294.497082	1.434923E-5	0.440000
294.578114	1.571716E-5	0.480000
294.655165	1.708867E-5	0.520000
294.731203	1.847240E-5	0.560000
294.810208	1.986329E-5	0.600000
294.885213	2.127146E-5	0.640000
294.964218	2.267479E-5	0.680000
295.040246	2.409667E-5	0.720000
295.118250	2.552753E-5	0.760000
295.194259	2.695865E-5	0.800000
295.271262	2.840378E-5	0.840000
295.347265	2.984710E-5	0.880000
295.424271	3.132113E-5	0.920000
295.502275	3.279491E-5	0.960000
295.581293	3.428836E-5	1.000000
295.657370	3.278151E-5	0.960000
295.735410	3.131671E-5	0.920000
295.811471	2.985185E-5	0.880000
295.887475	2.839607E-5	0.840000
295.964481	2.694886E-5	0.800000
296.041486	2.551041E-5	0.760000
296.118490	2.408496E-5	0.720000
296.195495	2.267273E-5	0.680000
296.272499	2.126272E-5	0.640000
296.350518	1.986392E-5	0.600000
296.427661	1.847456E-5	0.560000
296.505728	1.709430E-5	0.520000
296.581791	1.571722E-5	0.480000
296.659787	1.435290E-5	0.440000
296.736793	1.299883E-5	0.400000
296.813797	1.165441E-5	0.360000
296.890801	1.032121E-5	0.320000
296.968807	8.999038E-6	0.280000
297.109816	7.685593E-6	0.240000
297.187821	6.383371E-6	0.200000
297.264826	5.091329E-6	0.160000
297.341830	3.808538E-6	0.120000
297.418836	2.533459E-6	0.080000
297.495962	1.266129E-6	0.040000
297.573029	3.191403E-9	0.000000
297.720162	1.261702E-6	-0.040000
297.922313	2.525368E-6	-0.080000
298.000319	3.793411E-6	-0.120000
298.078323	5.068605E-6	-0.160000
298.156328	6.352482E-6	-0.200000
298.235333	7.643871E-6	-0.240000
298.313384	8.946346E-6	-0.280000
298.391433	1.026097E-5	-0.320000
298.469529	1.158601E-5	-0.360000
298.665638	1.292840E-5	-0.400000
298.741644	1.427883E-5	-0.440000
298.819649	1.565173E-5	-0.480000
298.896654	1.704283E-5	-0.520000
298.972659	1.846233E-5	-0.560000
299.050664	1.991639E-5	-0.600000
299.126669	2.141830E-5	-0.640000
299.204674	2.296213E-5	-0.680000
299.280678	2.456406E-5	-0.720000
299.358683	2.623284E-5	-0.760000
299.435688	2.794328E-5	-0.800000
299.512751	2.971006E-5	-0.840000
299.589818	3.154428E-5	-0.880000
299.666872	3.341505E-5	-0.920000
299.742909	3.532946E-5	-0.960000
299.819913	3.729365E-5	-1.000000
299.897918	3.538907E-5	-0.960000
299.973924	3.352416E-5	-0.920000
300.050929	3.168415E-5	-0.880000
300.127934	2.988290E-5	-0.840000
300.204938	2.812652E-5	-0.800000
300.280969	2.641150E-5	-0.760000
300.359026	2.473953E-5	-0.720000
300.436100	2.312136E-5	-0.680000
300.511106	2.154394E-5	-0.640000
300.588110	2.002334E-5	-0.600000
300.666115	1.853598E-5	-0.560000
300.742120	1.709565E-5	-0.520000
300.819125	1.568472E-5	-0.480000
300.897130	1.430177E-5	-0.440000
300.974136	1.293958E-5	-0.400000
301.051139	1.159670E-5	-0.360000
301.128146	1.026758E-5	-0.320000
301.205149	8.946574E-6	-0.280000
301.346298	7.643693E-6	-0.240000
301.424373	6.351728E-6	-0.200000
301.502470	5.067810E-6	-0.160000
301.580510	3.793853E-6	-0.120000
301.657515	2.525237E-6	-0.080000
301.734519	1.261063E-6	-0.040000
301.811526	5.962493E-10	0.000000
301.957534	1.266984E-6	0.040000
302.158546	2.533587E-6	0.080000
302.236552	3.807607E-6	0.120000
302.313556	5.090417E-6	0.160000
302.391562	6.381743E-6	0.200000
302.470566	7.684635E-6	0.240000
302.547571	8.998630E-6	0.280000
302.625576	1.031912E-5	0.320000
302.703582	1.165349E-5	0.360000
302.901597	1.299819E-5	0.400000
302.978599	1.435473E-5	0.440000
303.056603	1.571179E-5	0.480000
303.132609	1.708528E-5	0.520000
303.237615	1.846902E-5	0.560000
303.315621	1.985670E-5	0.600000
303.392625	2.125272E-5	0.640000
303.469664	2.266516E-5	0.680000
303.545670	2.408558E-5	0.720000
303.622674	2.551485E-5	0.760000
303.700678	2.694232E-5	0.800000
303.775684	2.838752E-5	0.840000
303.852689	2.983942E-5	0.880000
303.929694	3.131228E-5	0.920000
304.005698	3.277856E-5	0.960000
304.082703	3.425772E-5	1.000000
304.159708	3.277698E-5	0.960000
304.236713	3.129376E-5	0.920000
304.313774	2.982846E-5	0.880000
304.392922	2.837673E-5	0.840000
304.470088	2.693226E-5	0.800000
304.547256	2.550023E-5	0.760000
304.624261	2.407287E-5	0.720000
304.701268	2.265532E-5	0.680000
304.777314	2.124704E-5	0.640000
304.854357	1.984899E-5	0.600000
304.932448	1.846138E-5	0.560000
305.008486	1.708661E-5	0.520000
305.086483	1.571280E-5	0.480000
305.162491	1.434881E-5	0.440000
305.240494	1.299517E-5	0.400000
305.317537	1.165079E-5	0.360000
305.394567	1.031830E-5	0.320000
305.471655	8.994693E-6	0.280000
305.613798	7.680802E-6	0.240000
305.691802	6.380531E-6	0.200000
305.769807	5.088777E-6	0.160000
305.846811	3.806070E-6	0.120000
305.923819	2.532694E-6	0.080000
306.001822	1.266051E-6	0.040000
306.078827	3.203151E-9	0.000000
306.225836	1.261264E-6	-0.040000
306.427001	2.524597E-6	-0.080000
306.505171	3.794396E-6	-0.120000
306.582231	5.070983E-6	-0.160000
306.660237	6.351750E-6	-0.200000
306.737240	7.641895E-6	-0.240000
306.814245	8.945708E-6	-0.280000
306.891303	1.025875E-5	-0.320000
306.969396	1.158058E-5	-0.360000
307.166528	1.291570E-5	-0.400000
307.243533	1.427104E-5	-0.440000
307.320598	1.563938E-5	-0.480000
307.397637	1.702983E-5	-0.520000
307.474668	1.844958E-5	-0.560000
307.552745	1.990432E-5	-0.600000
307.628749	2.140396E-5	-0.640000
307.706755	2.295168E-5	-0.680000
307.783759	2.455114E-5	-0.720000
307.860812	2.621841E-5	-0.760000
307.938869	2.793032E-5	-0.800000
308.015925	2.970363E-5	-0.840000
308.091980	3.152793E-5	-0.880000
308.170002	3.340055E-5	-0.920000
308.246008	3.531929E-5	-0.960000
308.323048	3.728275E-5	-1.000000
308.401116	3.538817E-5	-0.960000
308.478179	3.353098E-5	-0.920000
308.556223	3.168518E-5	-0.880000
308.633277	2.988267E-5	-0.840000
308.708348	2.812294E-5	-0.800000
308.787457	2.640976E-5	-0.760000
308.864512	2.473290E-5	-0.720000
308.941635	2.310951E-5	-0.680000
309.018640	2.153744E-5	-0.640000
309.094646	2.001390E-5	-0.600000
309.170696	1.853203E-5	-0.560000
309.248726	1.709009E-5	-0.520000
309.324755	1.567923E-5	-0.480000
309.401816	1.429539E-5	-0.440000
309.478821	1.293258E-5	-0.400000
309.555872	1.158814E-5	-0.360000
309.632962	1.025841E-5	-0.320000
309.709993	8.944872E-6	-0.280000
309.852075	7.644234E-6	-0.240000
309.929081	6.349651E-6	-0.200000
310.006085	5.066498E-6	-0.160000
310.083090	3.793010E-6	-0.120000
310.161094	2.524780E-6	-0.080000
310.238099	1.261123E-6	-0.040000
310.315162	5.772531E-10	0.000000
310.462354	1.266084E-6	0.040000
310.665418	2.532758E-6	0.080000
310.743424	3.806307E-6	0.120000
310.822462	5.089428E-6	0.160000
310.899527	6.378866E-6	0.200000
310.977583	7.680179E-6	0.240000
311.054635	8.993895E-6	0.280000
311.132638	1.031193E-5	0.320000
311.209644	1.164541E-5	0.360000
311.406656	1.298891E-5	0.400000
311.483663	1.434318E-5	0.440000
311.559724	1.570422E-5	0.480000
311.636774	1.707907E-5	0.520000
311.713833	1.845828E-5	0.560000
311.789857	1.984807E-5	0.600000
311.866862	2.125003E-5	0.640000
311.943870	2.266028E-5	0.680000
312.020874	2.407581E-5	0.720000
312.097877	2.550682E-5	0.760000
312.175881	2.694368E-5	0.800000
312.252887	2.838539E-5	0.840000
312.328891	2.983891E-5	0.880000
312.406896	3.129270E-5	0.920000
312.482901	3.277220E-5	0.960000
312.559947	3.425666E-5	1.000000
312.639114	3.277104E-5	0.960000
312.715167	3.130212E-5	0.920000
312.794245	2.982942E-5	0.880000
312.871286	2.837535E-5	0.840000
312.947339	2.693564E-5	0.800000
313.024428	2.549635E-5	0.760000
313.102606	2.407228E-5	0.720000
313.179612	2.265264E-5	0.680000
313.255617	2.124774E-5	0.640000
313.332665	1.984975E-5	0.600000
313.409766	1.845900E-5	0.560000
313.487820	1.707652E-5	0.520000
313.562950	1.570881E-5	0.480000
313.640956	1.434330E-5	0.440000
313.717959	1.298798E-5	0.400000
313.794964	1.164522E-5	0.360000
313.871970	1.031494E-5	0.320000
313.948974	8.998077E-6	0.280000
314.090983	7.684116E-6	0.240000
314.167988	6.379806E-6	0.200000
314.244992	5.088968E-6	0.160000
314.322057	3.807261E-6	0.120000
314.400131	2.533791E-6	0.080000
314.478174	1.266212E-6	0.040000
314.557339	3.199405E-9	0.000000
314.704519	1.261696E-6	-0.040000
314.906633	2.525516E-6	-0.080000
314.983639	3.794363E-6	-0.120000
315.060644	5.069347E-6	-0.160000
315.137648	6.350953E-6	-0.200000
315.214653	7.641893E-6	-0.240000
315.292659	8.944147E-6	-0.280000
315.369663	1.025823E-5	-0.320000
315.446668	1.158694E-5	-0.360000
315.642896	1.292776E-5	-0.400000
315.720965	1.427350E-5	-0.440000
315.797995	1.564689E-5	-0.480000
315.874998	1.703665E-5	-0.520000
315.953002	1.845480E-5	-0.560000
316.030007	1.991212E-5	-0.600000
316.107012	2.141817E-5	-0.640000
316.184017	2.295589E-5	-0.680000
316.261022	2.455877E-5	-0.720000
316.337086	2.623403E-5	-0.760000
316.413166	2.794368E-5	-0.800000
316.491216	2.971791E-5	-0.840000
316.567293	3.152459E-5	-0.880000
316.644297	3.342301E-5	-0.920000
316.721303	3.533633E-5	-0.960000
316.797307	3.729774E-5	-1.000000
316.874312	3.540158E-5	-0.960000
316.952317	3.353626E-5	-0.920000
317.028322	3.169576E-5	-0.880000
317.105326	2.989999E-5	-0.840000
317.182415	2.813318E-5	-0.800000
317.260479	2.641630E-5	-0.760000
317.337545	2.474760E-5	-0.720000
317.413648	2.312617E-5	-0.680000
317.491653	2.155282E-5	-0.640000
317.571695	2.002241E-5	-0.600000
317.648746	1.854266E-5	-0.560000
317.724798	1.709881E-5	-0.520000
317.801855	1.568501E-5	-0.480000
317.879860	1.430294E-5	-0.440000
317.955864	1.294218E-5	-0.400000
318.033869	1.159591E-5	-0.360000
318.111875	1.026763E-5	-0.320000
318.189880	8.951829E-6	-0.280000
318.331887	7.650146E-6	-0.240000
318.409894	6.355230E-6	-0.200000
318.487897	5.071194E-6	-0.160000
318.565903	3.797074E-6	-0.120000
318.645908	2.528000E-6	-0.080000
318.722913	1.262551E-6	-0.040000
318.801918	5.941498E-10	0.000000
318.947928	1.267291E-6	0.040000
319.149939	2.536148E-6	0.080000
319.226945	3.810362E-6	0.120000
319.305950	5.094917E-6	0.160000
319.382955	6.385113E-6	0.200000
319.460991	7.687635E-6	0.240000
319.539078	9.001896E-6	0.280000
319.617130	1.032242E-5	0.320000
319.694135	1.165088E-5	0.360000
319.891147	1.299645E-5	0.400000
319.968152	1.435132E-5	0.440000
320.045157	1.571506E-5	0.480000
320.121161	1.708806E-5	0.520000
320.198190	1.846923E-5	0.560000
320.276239	1.985798E-5	0.600000
320.353298	2.125672E-5	0.640000
320.430349	2.266984E-5	0.680000
320.507353	2.408831E-5	0.720000
320.583358	2.551749E-5	0.760000
320.660363	2.694740E-5	0.800000
320.738367	2.839127E-5	0.840000
320.815373	2.984841E-5	0.880000
320.892377	3.130860E-5	0.920000
320.969382	3.278224E-5	0.960000
321.046387	3.426608E-5	1.000000
321.122392	3.276874E-5	0.960000
321.198397	3.129696E-5	0.920000
321.276402	2.983585E-5	0.880000
321.353406	2.838756E-5	0.840000
321.430411	2.693353E-5	0.800000
321.507417	2.550157E-5	0.760000
321.582422	2.408028E-5	0.720000
321.660427	2.266391E-5	0.680000
321.737431	2.125404E-5	0.640000
321.813436	1.985475E-5	0.600000
321.890441	1.846602E-5	0.560000
321.967445	1.708180E-5	0.520000
322.044451	1.571048E-5	0.480000
322.122455	1.434958E-5	0.440000
322.198460	1.299429E-5	0.400000
322.276465	1.165046E-5	0.360000
322.354471	1.031668E-5	0.320000
322.432534	8.996493E-6	0.280000
322.572702	7.683944E-6	0.240000
322.650796	6.379412E-6	0.200000
322.727802	5.089515E-6	0.160000
322.804806	3.807990E-6	0.120000
322.881896	2.533842E-6	0.080000
322.959981	1.266030E-6	0.040000
323.038033	3.246289E-9	0.000000
323.184103	1.261281E-6	-0.040000
323.386114	2.524975E-6	-0.080000
323.463119	3.793831E-6	-0.120000
323.541160	5.067861E-6	-0.160000
323.618303	6.351253E-6	-0.200000
323.695354	7.643165E-6	-0.240000
323.772414	8.944741E-6	-0.280000
323.850562	1.025705E-5	-0.320000
323.927616	1.158161E-5	-0.360000
324.124815	1.291669E-5	-0.400000
324.201818	1.427126E-5	-0.440000
324.278823	1.563891E-5	-0.480000
324.355828	1.702946E-5	-0.520000
324.432834	1.845145E-5	-0.560000
324.509839	1.990687E-5	-0.600000
324.586843	2.140618E-5	-0.640000
324.663849	2.295516E-5	-0.680000
324.740854	2.455773E-5	-0.720000
324.816858	2.633161E-5	-0.760000
324.893862	2.797937E-5	-0.800000
324.971867	2.983054E-5	-0.840000
325.047873	3.152372E-5	-0.880000
325.125878	3.339952E-5	-0.920000
325.202882	3.532316E-5	-0.960000
325.278895	3.744217E-5	-1.000000
325.356892	3.549859E-5	-0.960000
325.432898	3.353971E-5	-0.920000
325.509951	3.167352E-5	-0.880000
325.587027	2.987963E-5	-0.840000
325.664090	2.812002E-5	-0.800000
325.741135	2.640756E-5	-0.760000
325.819189	2.473488E-5	-0.720000
325.895241	2.311044E-5	-0.680000
325.972281	2.154347E-5	-0.640000
326.050343	2.001717E-5	-0.600000
326.125416	1.853363E-5	-0.560000
326.202421	1.708730E-5	-0.520000
326.280427	1.568016E-5	-0.480000
326.356431	1.429645E-5	-0.440000
326.434520	1.293426E-5	-0.400000
326.512595	1.159120E-5	-0.360000
326.590646	1.026406E-5	-0.320000
326.668715	8.948622E-6	-0.280000
326.809902	7.645275E-6	-0.240000
326.888965	6.351845E-6	-0.200000
326.967019	5.070014E-6	-0.160000
327.045022	3.793363E-6	-0.120000
327.122028	2.524875E-6	-0.080000
327.200034	1.261136E-6	-0.040000
327.277039	5.994485E-10	0.000000
327.423047	1.266556E-6	0.040000
327.624060	2.534307E-6	0.080000
327.702065	3.807280E-6	0.120000
327.780070	5.088788E-6	0.160000
327.858074	6.382671E-6	0.200000
327.935079	7.684791E-6	0.240000
328.012084	8.998162E-6	0.280000
328.090090	1.031977E-5	0.320000
328.167094	1.165473E-5	0.360000
328.364107	1.299840E-5	0.400000
328.441111	1.434871E-5	0.440000
328.517117	1.571174E-5	0.480000
328.594121	1.708449E-5	0.520000
328.670177	1.847116E-5	0.560000
328.748219	1.986456E-5	0.600000
328.824237	2.126723E-5	0.640000
328.902289	2.267587E-5	0.680000
328.979294	2.409394E-5	0.720000
329.057299	2.551755E-5	0.760000
329.134305	2.695381E-5	0.800000
329.210310	2.840309E-5	0.840000
329.287314	2.985695E-5	0.880000
329.365320	3.131356E-5	0.920000
329.441324	3.279375E-5	0.960000
329.519329	3.427696E-5	1.000000
329.595334	3.278169E-5	0.960000
329.670339	3.131496E-5	0.920000
329.746343	2.984328E-5	0.880000
329.824348	2.839480E-5	0.840000
329.900353	2.695749E-5	0.800000
329.977358	2.554788E-5	0.760000
330.055363	2.410479E-5	0.720000
330.131368	2.266700E-5	0.680000
330.208373	2.126133E-5	0.640000
330.284378	1.985886E-5	0.600000
330.361441	1.848552E-5	0.560000
330.439549	1.710371E-5	0.520000
330.515603	1.572403E-5	0.480000
330.593668	1.436107E-5	0.440000
330.670719	1.300815E-5	0.400000
330.747784	1.166306E-5	0.360000
330.825951	1.032787E-5	0.320000
330.902009	9.006975E-6	0.280000
331.043030	7.692126E-6	0.240000
331.120036	6.387192E-6	0.200000
331.197040	5.093739E-6	0.160000
331.274045	3.810794E-6	0.120000
331.351049	2.535654E-6	0.080000
331.429054	1.267152E-6	0.040000
331.506059	3.270131E-9	0.000000
331.653171	1.262037E-6	-0.040000
331.855438	2.527096E-6	-0.080000
331.932442	3.795595E-6	-0.120000
332.009447	5.072236E-6	-0.160000
332.087453	6.358023E-6	-0.200000
332.164457	7.651700E-6	-0.240000
332.241462	8.955981E-6	-0.280000
332.319516	1.027127E-5	-0.320000
332.396563	1.159585E-5	-0.360000
332.593758	1.293315E-5	-0.400000
332.670763	1.428889E-5	-0.440000
332.747767	1.566434E-5	-0.480000
332.823772	1.706982E-5	-0.520000
332.899777	1.850048E-5	-0.560000
332.976782	1.996881E-5	-0.600000
333.053787	2.146697E-5	-0.640000
333.130792	2.297156E-5	-0.680000
333.207798	2.459653E-5	-0.720000
333.285801	2.628351E-5	-0.760000
333.362806	2.797135E-5	-0.800000
333.439811	2.975803E-5	-0.840000
333.516839	3.158495E-5	-0.880000
333.592890	3.345393E-5	-0.920000
333.670949	3.537789E-5	-0.960000
333.746019	3.735247E-5	-1.000000
333.823024	3.545469E-5	-0.960000
333.899029	3.357378E-5	-0.920000
333.976034	3.172475E-5	-0.880000
334.053039	2.994181E-5	-0.840000
334.131043	2.818192E-5	-0.800000
334.209048	2.645828E-5	-0.760000
334.286053	2.479476E-5	-0.720000
334.363059	2.316297E-5	-0.680000
334.439063	2.158831E-5	-0.640000
334.518067	2.005258E-5	-0.600000
334.596072	1.857425E-5	-0.560000
334.674078	1.712094E-5	-0.520000
334.752083	1.570989E-5	-0.480000
334.830088	1.431933E-5	-0.440000
334.907092	1.295717E-5	-0.400000
334.985098	1.160786E-5	-0.360000
335.062102	1.027490E-5	-0.320000
335.141107	8.955144E-6	-0.280000
335.312119	7.649965E-6	-0.240000
335.389124	6.356884E-6	-0.200000
335.468189	5.070484E-6	-0.160000
335.546194	3.795041E-6	-0.120000
335.624198	2.526505E-6	-0.080000
335.702204	1.262093E-6	-0.040000
335.781208	6.268916E-10	0.000000
335.927217	1.267690E-6	0.040000
336.129230	2.535767E-6	0.080000
336.206236	3.811344E-6	0.120000
336.284253	5.095459E-6	0.160000
336.361319	6.391441E-6	0.200000
336.438394	7.693240E-6	0.240000
336.515446	9.012001E-6	0.280000
336.593464	1.033501E-5	0.320000
336.670476	1.167555E-5	0.360000
336.866480	1.301526E-5	0.400000
336.944486	1.437231E-5	0.440000
337.021493	1.574359E-5	0.480000
337.098495	1.711463E-5	0.520000
337.174500	1.848658E-5	0.560000
337.251504	1.988327E-5	0.600000
337.328578	2.128651E-5	0.640000
337.406661	2.269152E-5	0.680000
337.484717	2.410965E-5	0.720000
337.561774	2.554211E-5	0.760000
337.637835	2.697094E-5	0.800000
337.713906	2.842885E-5	0.840000
337.791949	2.987977E-5	0.880000
337.866982	3.132848E-5	0.920000
337.944986	3.280594E-5	0.960000
338.021034	3.429005E-5	1.000000
338.098066	3.280255E-5	0.960000
338.175094	3.132323E-5	0.920000
338.253150	2.986710E-5	0.880000
338.330155	2.839409E-5	0.840000
338.406173	2.696511E-5	0.800000
338.483237	2.552735E-5	0.760000
338.561315	2.409794E-5	0.720000
338.636381	2.267563E-5	0.680000
338.714443	2.127560E-5	0.640000
338.790453	1.987048E-5	0.600000
338.868506	1.848093E-5	0.560000
338.944512	1.709454E-5	0.520000
339.022516	1.572377E-5	0.480000
339.098521	1.435516E-5	0.440000
339.176526	1.300799E-5	0.400000
339.253531	1.166592E-5	0.360000
339.330601	1.033137E-5	0.320000
339.407661	9.008707E-6	0.280000
339.548794	7.694499E-6	0.240000
339.626799	6.390941E-6	0.200000
339.703804	5.097085E-6	0.160000
339.780809	3.811754E-6	0.120000
339.857817	2.537319E-6	0.080000
339.934818	1.268111E-6	0.040000
340.011824	3.239548E-9	0.000000
340.158834	1.262336E-6	-0.040000
340.361007	2.526999E-6	-0.080000
340.438010	3.796019E-6	-0.120000
340.516069	5.072108E-6	-0.160000
340.594134	6.355840E-6	-0.200000
340.672216	7.649082E-6	-0.240000
340.750279	8.950588E-6	-0.280000
340.827398	1.026516E-5	-0.320000
340.905460	1.158971E-5	-0.360000
341.102669	1.292535E-5	-0.400000
341.180675	1.427994E-5	-0.440000
341.258678	1.564888E-5	-0.480000
341.334731	1.704692E-5	-0.520000
341.412780	1.846710E-5	-0.560000
341.487809	1.992988E-5	-0.600000
341.563861	2.142712E-5	-0.640000
341.642030	2.297619E-5	-0.680000
341.718046	2.457839E-5	-0.720000
341.795110	2.623868E-5	-0.760000
341.870162	2.795782E-5	-0.800000
341.947165	2.973173E-5	-0.840000
342.024170	3.155325E-5	-0.880000
342.100175	3.342714E-5	-0.920000
342.177181	3.534513E-5	-0.960000
342.255186	3.730268E-5	-1.000000
342.332191	3.541190E-5	-0.960000
342.408196	3.354364E-5	-0.920000
342.485260	3.170589E-5	-0.880000
342.563324	2.990347E-5	-0.840000
342.640341	2.815220E-5	-0.800000
342.716404	2.642640E-5	-0.760000
342.794412	2.475561E-5	-0.720000
342.871471	2.313118E-5	-0.680000
342.947535	2.155602E-5	-0.640000
343.024644	2.002674E-5	-0.600000
343.102674	1.854273E-5	-0.560000
343.180798	1.709608E-5	-0.520000
343.257802	1.568748E-5	-0.480000
343.332845	1.430060E-5	-0.440000
343.409895	1.293927E-5	-0.400000
343.487959	1.159623E-5	-0.360000
343.565075	1.026901E-5	-0.320000
343.642079	8.952406E-6	-0.280000
343.784088	7.648478E-6	-0.240000
343.862093	6.357432E-6	-0.200000
343.940098	5.071970E-6	-0.160000
344.017104	3.795712E-6	-0.120000
344.094108	2.526008E-6	-0.080000
344.172113	1.262093E-6	-0.040000
344.249118	6.384401E-10	0.000000
344.396208	1.268130E-6	0.040000
344.597373	2.536954E-6	0.080000
344.675378	3.811841E-6	0.120000
344.752383	5.094730E-6	0.160000
344.829388	6.386240E-6	0.200000
344.906392	7.692891E-6	0.240000
344.983397	9.000450E-6	0.280000
345.060401	1.032509E-5	0.320000
345.137407	1.168724E-5	0.360000
345.334421	1.304315E-5	0.400000
345.411425	1.439449E-5	0.440000
345.488431	1.576009E-5	0.480000
345.571482	1.713321E-5	0.520000
345.647546	1.853476E-5	0.560000
345.724573	1.991976E-5	0.600000
345.802635	2.131550E-5	0.640000
345.879641	2.274085E-5	0.680000
345.957646	2.414834E-5	0.720000
346.035724	2.555423E-5	0.760000
346.112808	2.697269E-5	0.800000
346.188885	2.841027E-5	0.840000
346.267029	2.988466E-5	0.880000
346.343093	3.134180E-5	0.920000
346.421139	3.282295E-5	0.960000
346.498189	3.435752E-5	1.000000
346.574243	3.288690E-5	0.960000
346.652366	3.145667E-5	0.920000
346.728370	2.997538E-5	0.880000
346.805375	2.854548E-5	0.840000
346.882456	2.710424E-5	0.800000
346.960483	2.567146E-5	0.760000
347.036547	2.423898E-5	0.720000
347.113589	2.278854E-5	0.680000
347.191593	2.141783E-5	0.640000
347.268598	1.997929E-5	0.600000
347.344662	1.859305E-5	0.560000
347.422705	1.719723E-5	0.520000
347.499841	1.580482E-5	0.480000
347.576901	1.442999E-5	0.440000
347.653905	1.304313E-5	0.400000
347.730911	1.172920E-5	0.360000
347.808916	1.039165E-5	0.320000
347.886956	9.051974E-6	0.280000
348.029049	7.736647E-6	0.240000
348.106053	6.424249E-6	0.200000
348.184058	5.120469E-6	0.160000
348.261063	3.830963E-6	0.120000
348.340096	2.547794E-6	0.080000
348.417150	1.272256E-6	0.040000
348.495217	3.262988E-9	0.000000
348.642331	1.269600E-6	-0.040000
348.843353	2.540162E-6	-0.080000
348.921349	3.816258E-6	-0.120000
348.998353	5.098095E-6	-0.160000
349.076359	6.394645E-6	-0.200000
349.153416	7.687841E-6	-0.240000
349.230526	8.997515E-6	-0.280000
349.307531	1.027623E-5	-0.320000
349.385586	1.160057E-5	-0.360000
349.582606	1.293509E-5	-0.400000
349.660603	1.429311E-5	-0.440000
349.738644	1.565967E-5	-0.480000
349.817672	1.706223E-5	-0.520000
349.894804	1.845596E-5	-0.560000
349.971829	1.991695E-5	-0.600000
350.050835	2.141614E-5	-0.640000
350.127840	2.296320E-5	-0.680000
350.204844	2.456303E-5	-0.720000
350.282849	2.623922E-5	-0.760000
350.358854	2.794043E-5	-0.800000
350.434859	2.972227E-5	-0.840000
350.511864	3.154467E-5	-0.880000
350.589869	3.341634E-5	-0.920000
350.666873	3.535242E-5	-0.960000
350.743878	3.729853E-5	-1.000000
350.821884	3.540051E-5	-0.960000
350.896888	3.353621E-5	-0.920000
350.974894	3.169771E-5	-0.880000
351.052897	2.989089E-5	-0.840000
351.130904	2.813946E-5	-0.800000
351.207910	2.642242E-5	-0.760000
351.284912	2.475050E-5	-0.720000
351.361918	2.312748E-5	-0.680000
351.439935	2.156073E-5	-0.640000
351.516078	2.002440E-5	-0.600000
351.592222	1.854297E-5	-0.560000
351.669226	1.710448E-5	-0.520000
351.746232	1.568896E-5	-0.480000
351.824236	1.430359E-5	-0.440000
351.901241	1.294073E-5	-0.400000
351.978246	1.159765E-5	-0.360000
352.055252	1.027091E-5	-0.320000
352.132257	8.952723E-6	-0.280000
352.274265	7.652307E-6	-0.240000
352.352305	6.355916E-6	-0.200000
352.430358	5.071298E-6	-0.160000
352.509423	3.795881E-6	-0.120000
352.587592	2.526149E-6	-0.080000
352.664598	1.261931E-6	-0.040000
352.742601	6.304897E-10	0.000000
352.889611	1.267305E-6	0.040000
353.090625	2.535289E-6	0.080000
353.168629	3.810027E-6	0.120000
353.245635	5.093349E-6	0.160000
353.322666	6.385366E-6	0.200000
353.401726	7.688347E-6	0.240000
353.479765	9.002707E-6	0.280000
353.556805	1.032736E-5	0.320000
353.635874	1.165885E-5	0.360000
353.833206	1.300459E-5	0.400000
353.911211	1.435732E-5	0.440000
353.989216	1.572123E-5	0.480000
354.065221	1.709443E-5	0.520000
354.142226	1.847480E-5	0.560000
354.220251	1.986820E-5	0.600000
354.296282	2.127241E-5	0.640000
354.374345	2.268196E-5	0.680000
354.451421	2.410206E-5	0.720000
354.528475	2.552378E-5	0.760000
354.605479	2.695362E-5	0.800000
354.682532	2.838701E-5	0.840000
354.758551	2.984597E-5	0.880000
354.836556	3.131329E-5	0.920000
354.912561	3.278707E-5	0.960000
354.989565	3.426748E-5	1.000000
355.067571	3.278278E-5	0.960000
355.145576	3.130886E-5	0.920000
355.222580	2.984308E-5	0.880000
355.299715	2.839807E-5	0.840000
355.376722	2.694553E-5	0.800000
355.453808	2.551059E-5	0.760000
355.530874	2.408863E-5	0.720000
355.608920	2.267661E-5	0.680000
355.685035	2.126000E-5	0.640000
355.762099	1.986380E-5	0.600000
355.839151	1.847129E-5	0.560000
355.917191	1.708890E-5	0.520000
355.995230	1.571357E-5	0.480000
356.071353	1.435486E-5	0.440000
356.149359	1.299812E-5	0.400000
356.226362	1.165556E-5	0.360000
356.303368	1.032076E-5	0.320000
356.381423	9.001659E-6	0.280000
356.523621	7.687702E-6	0.240000
356.601697	6.386295E-6	0.200000
356.679701	5.091437E-6	0.160000
356.756706	3.809349E-6	0.120000
356.834711	2.534405E-6	0.080000
356.914717	1.267029E-6	0.040000
356.992722	3.220248E-9	0.000000
357.139730	1.261978E-6	-0.040000
357.341743	2.526243E-6	-0.080000
357.418748	3.795697E-6	-0.120000
357.495754	5.071745E-6	-0.160000
357.573783	6.353577E-6	-0.200000
357.650883	7.646197E-6	-0.240000
357.727886	8.947492E-6	-0.280000
357.805906	1.026274E-5	-0.320000
357.884910	1.158609E-5	-0.360000
358.080922	1.292365E-5	-0.400000
358.157927	1.427595E-5	-0.440000
358.234931	1.564814E-5	-0.480000
358.311937	1.703995E-5	-0.520000
358.387946	1.846059E-5	-0.560000
358.465947	1.992220E-5	-0.600000
358.541966	2.142307E-5	-0.640000
358.620015	2.296887E-5	-0.680000
358.696072	2.457234E-5	-0.720000
358.774126	2.624292E-5	-0.760000
358.851130	2.795222E-5	-0.800000
358.927131	2.972481E-5	-0.840000
359.004142	3.154602E-5	-0.880000
359.082141	3.342007E-5	-0.920000
359.158146	3.533964E-5	-0.960000
359.235207	3.729696E-5	-1.000000
359.312246	3.540777E-5	-0.960000
359.389307	3.354709E-5	-0.920000
359.466342	3.170895E-5	-0.880000
359.543343	2.990304E-5	-0.840000
359.620348	2.813948E-5	-0.800000
359.697402	2.642245E-5	-0.760000
359.775435	2.475212E-5	-0.720000
359.852463	2.313168E-5	-0.680000
359.929469	2.155623E-5	-0.640000
360.006473	2.003363E-5	-0.600000
360.083477	1.854776E-5	-0.560000
360.160483	1.710630E-5	-0.520000
360.237543	1.568957E-5	-0.480000
360.314574	1.430692E-5	-0.440000
360.391627	1.294717E-5	-0.400000
360.468678	1.159863E-5	-0.360000
360.546684	1.027085E-5	-0.320000
360.623737	8.954553E-6	-0.280000
360.766876	7.652550E-6	-0.240000
360.844930	6.356416E-6	-0.200000
360.921972	5.073003E-6	-0.160000
360.999977	3.796321E-6	-0.120000
361.076982	2.526759E-6	-0.080000
361.153988	1.262254E-6	-0.040000
361.230992	5.773530E-10	0.000000
361.378001	1.267558E-6	0.040000
361.580014	2.535428E-6	0.080000
361.657018	3.809489E-6	0.120000
361.734024	5.093515E-6	0.160000
361.811029	6.386688E-6	0.200000
361.889034	7.690423E-6	0.240000
361.967039	9.005184E-6	0.280000
362.045043	1.032832E-5	0.320000
362.122048	1.165833E-5	0.360000
362.318249	1.300425E-5	0.400000
362.396295	1.435635E-5	0.440000
362.473341	1.572084E-5	0.480000
362.549343	1.709684E-5	0.520000
362.627347	1.848043E-5	0.560000
362.704376	1.987214E-5	0.600000
362.781453	2.126890E-5	0.640000
362.858519	2.268015E-5	0.680000
362.935558	2.409501E-5	0.720000
363.012680	2.552512E-5	0.760000
363.088697	2.696276E-5	0.800000
363.166702	2.841128E-5	0.840000
363.242757	2.986369E-5	0.880000
363.321822	3.132459E-5	0.920000
363.398839	3.280137E-5	0.960000
363.475878	3.428882E-5	1.000000
363.552912	3.279921E-5	0.960000
363.630002	3.131441E-5	0.920000
363.706006	2.985210E-5	0.880000
363.783010	2.839792E-5	0.840000
363.861086	2.694915E-5	0.800000
363.938228	2.551289E-5	0.760000
364.015284	2.408652E-5	0.720000
364.092344	2.266867E-5	0.680000
364.169406	2.126384E-5	0.640000
364.245460	1.986755E-5	0.600000
364.323500	1.847228E-5	0.560000
364.400506	1.709099E-5	0.520000
364.477510	1.572357E-5	0.480000
364.553515	1.435583E-5	0.440000
364.631546	1.299983E-5	0.400000
364.708602	1.165702E-5	0.360000
364.785608	1.031964E-5	0.320000
364.863670	8.998530E-6	0.280000
365.006679	7.683343E-6	0.240000
365.083685	6.382999E-6	0.200000
365.160690	5.090140E-6	0.160000
365.237719	3.807855E-6	0.120000
365.314723	2.533646E-6	0.080000
365.392728	1.266909E-6	0.040000
365.469734	3.209300E-9	0.000000
365.616806	1.261832E-6	-0.040000
365.820926	2.526026E-6	-0.080000
365.897941	3.794687E-6	-0.120000
365.975937	5.070654E-6	-0.160000
366.052942	6.350750E-6	-0.200000
366.130946	7.644272E-6	-0.240000
366.208951	8.948758E-6	-0.280000
366.286956	1.026278E-5	-0.320000
366.364961	1.158537E-5	-0.360000
366.561974	1.292125E-5	-0.400000
366.639977	1.427870E-5	-0.440000
366.716982	1.565249E-5	-0.480000
366.794988	1.704370E-5	-0.520000
366.873993	1.846502E-5	-0.560000
366.951998	1.992496E-5	-0.600000
367.030005	2.143314E-5	-0.640000
367.107008	2.298273E-5	-0.680000
367.182013	2.460027E-5	-0.720000
367.286019	2.625749E-5	-0.760000
367.363025	2.797421E-5	-0.800000
367.440029	2.973472E-5	-0.840000
367.517035	3.155684E-5	-0.880000
367.595109	3.343536E-5	-0.920000
367.672114	3.534207E-5	-0.960000
367.748167	3.731552E-5	-1.000000
367.826218	3.539719E-5	-0.960000
367.902273	3.355258E-5	-0.920000
367.980353	3.171031E-5	-0.880000
368.057357	2.990811E-5	-0.840000
368.133362	2.814806E-5	-0.800000
368.211413	2.643113E-5	-0.760000
368.287430	2.476201E-5	-0.720000
368.365435	2.313934E-5	-0.680000
368.442440	2.156760E-5	-0.640000
368.519445	2.003761E-5	-0.600000
368.596475	1.854652E-5	-0.560000
368.673519	1.710683E-5	-0.520000
368.750656	1.569369E-5	-0.480000
368.827712	1.431290E-5	-0.440000
368.904717	1.294666E-5	-0.400000
368.981721	1.160163E-5	-0.360000
369.058728	1.027149E-5	-0.320000
369.135732	8.953405E-6	-0.280000
369.278833	7.652099E-6	-0.240000
369.356925	6.358536E-6	-0.200000
369.433991	5.073775E-6	-0.160000
369.512131	3.796971E-6	-0.120000
369.594136	2.526727E-6	-0.080000
369.672146	1.262329E-6	-0.040000
369.749146	5.512106E-10	0.000000
369.896158	1.267292E-6	0.040000
370.097168	2.535590E-6	0.080000
370.175230	3.810380E-6	0.120000
370.252275	5.091647E-6	0.160000
370.330309	6.383883E-6	0.200000
370.408361	7.686865E-6	0.240000
370.486402	9.001149E-6	0.280000
370.564406	1.032444E-5	0.320000
370.642412	1.165507E-5	0.360000
370.839541	1.299948E-5	0.400000
370.916584	1.435705E-5	0.440000
370.993622	1.571744E-5	0.480000
371.070628	1.709555E-5	0.520000
371.146632	1.847409E-5	0.560000
371.225638	1.987039E-5	0.600000
371.302642	2.126803E-5	0.640000
371.378649	2.267486E-5	0.680000
371.457652	2.408969E-5	0.720000
371.533656	2.552005E-5	0.760000
371.610708	2.695650E-5	0.800000
371.686759	2.840126E-5	0.840000
371.764814	2.985891E-5	0.880000
371.842881	3.130921E-5	0.920000
371.917886	3.278237E-5	0.960000
371.994891	3.426409E-5	1.000000
372.071895	3.277781E-5	0.960000
372.147901	3.130813E-5	0.920000
372.224960	2.984294E-5	0.880000
372.301965	2.839415E-5	0.840000
372.379005	2.694593E-5	0.800000
372.458071	2.551236E-5	0.760000
372.535192	2.408377E-5	0.720000
372.611197	2.267202E-5	0.680000
372.688202	2.126273E-5	0.640000
372.765206	1.986375E-5	0.600000
372.843223	1.847744E-5	0.560000
372.920285	1.708993E-5	0.520000
372.997364	1.571667E-5	0.480000
373.074451	1.435445E-5	0.440000
373.151457	1.300053E-5	0.400000
373.228462	1.165779E-5	0.360000
373.305466	1.032323E-5	0.320000
373.382471	9.003242E-6	0.280000
373.524482	7.686827E-6	0.240000
373.601485	6.384885E-6	0.200000
373.678491	5.091031E-6	0.160000
373.755496	3.808408E-6	0.120000
373.832499	2.534551E-6	0.080000
373.910506	1.266980E-6	0.040000
373.987510	3.233096E-9	0.000000
374.134519	1.262295E-6	-0.040000
374.335532	2.526606E-6	-0.080000
374.413537	3.796017E-6	-0.120000
374.490593	5.071227E-6	-0.160000
374.568649	6.355862E-6	-0.200000
374.646717	7.647101E-6	-0.240000
374.724745	8.950250E-6	-0.280000
374.801750	1.026701E-5	-0.320000
374.878802	1.158791E-5	-0.360000
375.075953	1.292397E-5	-0.400000
375.154034	1.427897E-5	-0.440000
375.231039	1.565088E-5	-0.480000
375.307044	1.705025E-5	-0.520000
375.384049	1.846694E-5	-0.560000
375.461053	1.991922E-5	-0.600000
375.539058	2.142161E-5	-0.640000
375.615108	2.296880E-5	-0.680000
375.693164	2.457110E-5	-0.720000
375.770198	2.623156E-5	-0.760000
375.847238	2.795007E-5	-0.800000
375.923243	2.972505E-5	-0.840000
376.000248	3.154725E-5	-0.880000
376.078253	3.342748E-5	-0.920000
376.155258	3.533938E-5	-0.960000
376.233263	3.730019E-5	-1.000000
376.309267	3.540721E-5	-0.960000
376.387272	3.353322E-5	-0.920000
376.463280	3.169776E-5	-0.880000
376.540282	2.990056E-5	-0.840000
376.618287	2.813515E-5	-0.800000
376.696291	2.641840E-5	-0.760000
376.773334	2.474882E-5	-0.720000
376.851362	2.312876E-5	-0.680000
376.927368	2.155197E-5	-0.640000
377.004373	2.002730E-5	-0.600000
377.082377	1.854316E-5	-0.560000
377.159387	1.710113E-5	-0.520000
377.234419	1.569295E-5	-0.480000
377.312627	1.430415E-5	-0.440000
377.389678	1.294149E-5	-0.400000
377.466730	1.159485E-5	-0.360000
377.544734	1.026779E-5	-0.320000
377.622785	8.953136E-6	-0.280000
377.763917	7.650280E-6	-0.240000
377.841955	6.356753E-6	-0.200000
377.919973	5.071363E-6	-0.160000
377.997977	3.794945E-6	-0.120000
378.074983	2.525891E-6	-0.080000
378.152991	1.261955E-6	-0.040000
378.229998	5.990979E-10	0.000000
378.377002	1.267219E-6	0.040000
378.579040	2.535042E-6	0.080000
378.656245	3.810054E-6	0.120000
378.734318	5.094038E-6	0.160000
378.812368	6.386898E-6	0.200000
378.890409	7.687370E-6	0.240000
378.967462	9.002047E-6	0.280000
379.045478	1.032551E-5	0.320000
379.122507	1.165831E-5	0.360000
379.319519	1.299981E-5	0.400000
379.397524	1.435341E-5	0.440000
379.474529	1.571958E-5	0.480000
379.551534	1.709643E-5	0.520000
379.627539	1.847634E-5	0.560000
379.705544	1.986869E-5	0.600000
379.781549	2.127250E-5	0.640000
379.859554	2.268269E-5	0.680000
379.935558	2.409900E-5	0.720000
380.013563	2.552690E-5	0.760000
380.089569	2.696664E-5	0.800000
380.167573	2.840489E-5	0.840000
380.243627	2.985648E-5	0.880000
380.321679	3.132562E-5	0.920000
380.398708	3.279990E-5	0.960000
380.475774	3.428288E-5	1.000000
380.550779	3.279966E-5	0.960000
380.627784	3.132734E-5	0.920000
380.703788	2.986118E-5	0.880000
380.780794	2.840828E-5	0.840000
380.857799	2.696655E-5	0.800000
380.935803	2.552212E-5	0.760000
381.012808	2.409563E-5	0.720000
381.089813	2.267365E-5	0.680000
381.166818	2.126612E-5	0.640000
381.242822	1.986670E-5	0.600000
381.319827	1.848241E-5	0.560000
381.396833	1.709730E-5	0.520000
381.473837	1.571948E-5	0.480000
381.551842	1.435590E-5	0.440000
381.628846	1.300345E-5	0.400000
381.706852	1.165946E-5	0.360000
381.783858	1.032559E-5	0.320000
381.860907	9.003568E-6	0.280000
382.001044	7.686845E-6	0.240000
382.080050	6.385199E-6	0.200000
382.158054	5.091529E-6	0.160000
382.235059	3.810043E-6	0.120000
382.314065	2.535277E-6	0.080000
382.392069	1.267080E-6	0.040000
382.471077	3.202054E-9	0.000000
382.617085	1.262366E-6	-0.040000
382.820099	2.526806E-6	-0.080000
382.897101	3.796206E-6	-0.120000
382.977107	5.071149E-6	-0.160000
383.054111	6.354900E-6	-0.200000
383.132116	7.647410E-6	-0.240000
383.217122	8.951446E-6	-0.280000
383.295126	1.026799E-5	-0.320000
383.372136	1.158500E-5	-0.360000
383.569551	1.292160E-5	-0.400000
383.647625	1.428232E-5	-0.440000
383.725632	1.565065E-5	-0.480000
383.801659	1.704224E-5	-0.520000
383.878879	1.846642E-5	-0.560000
383.956896	1.992579E-5	-0.600000
384.033949	2.142689E-5	-0.640000
384.111954	2.297442E-5	-0.680000
384.188959	2.457455E-5	-0.720000
384.264963	2.624345E-5	-0.760000
384.342014	2.795541E-5	-0.800000
384.420060	2.972354E-5	-0.840000
384.497145	3.154955E-5	-0.880000
384.574319	3.342205E-5	-0.920000
384.650324	3.533595E-5	-0.960000
384.727329	3.729452E-5	-1.000000
384.804335	3.540213E-5	-0.960000
384.882339	3.354158E-5	-0.920000
384.958344	3.169842E-5	-0.880000
385.035349	2.989662E-5	-0.840000
385.112353	2.813255E-5	-0.800000
385.188362	2.642034E-5	-0.760000
385.265363	2.475036E-5	-0.720000
385.342393	2.313312E-5	-0.680000
385.419462	2.155686E-5	-0.640000
385.497494	2.003116E-5	-0.600000
385.574649	1.854440E-5	-0.560000
385.651654	1.709894E-5	-0.520000
385.727659	1.569096E-5	-0.480000
385.804664	1.430561E-5	-0.440000
385.882669	1.294270E-5	-0.400000
385.959673	1.159883E-5	-0.360000
386.036678	1.027107E-5	-0.320000
386.113683	8.959071E-6	-0.280000
386.254693	7.651099E-6	-0.240000
386.332710	6.357672E-6	-0.200000
386.410761	5.072670E-6	-0.160000
386.487813	3.796699E-6	-0.120000
386.566818	2.526557E-6	-0.080000
386.643838	1.262471E-6	-0.040000
386.721843	6.075957E-10	0.000000
386.868853	1.267665E-6	0.040000
387.070865	2.536665E-6	0.080000
387.147871	3.811721E-6	0.120000
387.224874	5.093656E-6	0.160000
387.301881	6.387970E-6	0.200000
387.378885	7.690050E-6	0.240000
387.455890	9.005578E-6	0.280000
387.533895	1.032746E-5	0.320000
387.611900	1.166141E-5	0.360000
387.809912	1.300505E-5	0.400000
387.888917	1.436012E-5	0.440000
387.966922	1.572111E-5	0.480000
388.043927	1.709724E-5	0.520000
388.121932	1.847900E-5	0.560000
388.200938	1.987187E-5	0.600000
388.277942	2.127079E-5	0.640000
388.354995	2.268330E-5	0.680000
388.431170	2.409768E-5	0.720000
388.509233	2.553129E-5	0.760000
388.585284	2.696707E-5	0.800000
388.662292	2.840998E-5	0.840000
388.740296	2.986677E-5	0.880000
388.816302	3.134077E-5	0.920000
388.894306	3.281076E-5	0.960000
388.970311	3.429754E-5	1.000000
389.047315	3.280666E-5	0.960000
389.124321	3.132007E-5	0.920000
389.200326	2.985842E-5	0.880000
389.277331	2.840622E-5	0.840000
389.354353	2.696480E-5	0.800000
389.431377	2.553285E-5	0.760000
389.508374	2.409617E-5	0.720000
389.585445	2.268010E-5	0.680000
389.662498	2.126594E-5	0.640000
389.739550	1.986733E-5	0.600000
389.815600	1.847744E-5	0.560000
389.892683	1.709406E-5	0.520000
389.968688	1.571779E-5	0.480000
390.046694	1.435530E-5	0.440000
390.122698	1.300222E-5	0.400000
390.199703	1.165973E-5	0.360000
390.276708	1.032771E-5	0.320000
390.353751	9.002803E-6	0.280000
390.494898	7.687500E-6	0.240000
390.572903	6.383198E-6	0.200000
390.651922	5.092533E-6	0.160000
390.729927	3.809171E-6	0.120000
390.807932	2.534916E-6	0.080000
390.886937	1.266829E-6	0.040000
390.964985	3.232843E-9	0.000000
391.112285	1.262273E-6	-0.040000
391.314297	2.527310E-6	-0.080000
391.391303	3.796043E-6	-0.120000
391.469307	5.073563E-6	-0.160000
391.547311	6.356874E-6	-0.200000
391.624317	7.645423E-6	-0.240000
391.702322	8.949536E-6	-0.280000
391.779326	1.026310E-5	-0.320000
391.857332	1.158824E-5	-0.360000
392.053344	1.292859E-5	-0.400000
392.129349	1.428116E-5	-0.440000
392.206354	1.564908E-5	-0.480000
392.283359	1.704678E-5	-0.520000
392.359419	1.846750E-5	-0.560000
392.436477	1.992228E-5	-0.600000
392.513529	2.142915E-5	-0.640000
392.590581	2.297169E-5	-0.680000
392.665586	2.457633E-5	-0.720000
392.743591	2.623523E-5	-0.760000
392.820596	2.794833E-5	-0.800000
392.897601	2.971459E-5	-0.840000
392.973607	3.154525E-5	-0.880000
393.051611	3.342129E-5	-0.920000
393.127630	3.534040E-5	-0.960000
393.205633	3.730094E-5	-1.000000
393.281639	3.541305E-5	-0.960000
393.360643	3.354515E-5	-0.920000
393.438698	3.170838E-5	-0.880000
393.515762	2.991027E-5	-0.840000
393.592834	2.816344E-5	-0.800000
393.668839	2.644239E-5	-0.760000
393.745844	2.476125E-5	-0.720000
393.822848	2.313820E-5	-0.680000
393.900855	2.156391E-5	-0.640000
393.977859	2.003565E-5	-0.600000
394.053863	1.855724E-5	-0.560000
394.131868	1.710994E-5	-0.520000
394.207873	1.569373E-5	-0.480000
394.285878	1.431000E-5	-0.440000
394.362897	1.294336E-5	-0.400000
394.439948	1.159897E-5	-0.360000
394.519008	1.027094E-5	-0.320000
394.597037	8.955305E-6	-0.280000
394.738046	7.650485E-6	-0.240000
394.816051	6.360086E-6	-0.200000
394.893056	5.074360E-6	-0.160000
394.970074	3.797043E-6	-0.120000
395.048152	2.527446E-6	-0.080000
395.126171	1.262418E-6	-0.040000
395.203176	5.690562E-10	0.000000
395.350185	1.267962E-6	0.040000
395.552197	2.535552E-6	0.080000
395.629202	3.810872E-6	0.120000
395.706208	5.093761E-6	0.160000
395.784213	6.385579E-6	0.200000
395.862230	7.688530E-6	0.240000
395.940283	9.003578E-6	0.280000
396.017333	1.033108E-5	0.320000
396.094394	1.165965E-5	0.360000
396.291698	1.300722E-5	0.400000
396.368834	1.435983E-5	0.440000
396.444895	1.572680E-5	0.480000
396.520900	1.709739E-5	0.520000
396.598905	1.848842E-5	0.560000
396.675910	1.987913E-5	0.600000
396.751915	2.128058E-5	0.640000
396.829919	2.268304E-5	0.680000
396.906924	2.410266E-5	0.720000
396.982930	2.553259E-5	0.760000
397.060934	2.698019E-5	0.800000
397.137938	2.841563E-5	0.840000
397.214944	2.988104E-5	0.880000
397.290950	3.133765E-5	0.920000
397.367954	3.281120E-5	0.960000
397.445959	3.429216E-5	1.000000
397.523963	3.279458E-5	0.960000
397.600970	3.132425E-5	0.920000
397.678974	2.986502E-5	0.880000
397.756979	2.841459E-5	0.840000
397.835983	2.695688E-5	0.800000
397.913989	2.551812E-5	0.760000
397.990993	2.409744E-5	0.720000
398.066998	2.268016E-5	0.680000
398.146003	2.126899E-5	0.640000
398.222008	1.987482E-5	0.600000
398.300013	1.847774E-5	0.560000
398.376018	1.709094E-5	0.520000
398.453022	1.571882E-5	0.480000
398.529027	1.435409E-5	0.440000
398.608032	1.300041E-5	0.400000
398.686037	1.165777E-5	0.360000
398.763043	1.032649E-5	0.320000
398.840047	9.002643E-6	0.280000
398.983056	7.688330E-6	0.240000
399.062061	6.387029E-6	0.200000
399.141067	5.093734E-6	0.160000
399.221072	3.811296E-6	0.120000
399.299077	2.535692E-6	0.080000
399.378082	1.267249E-6	0.040000
399.458086	3.179657E-9	0.000000
399.605248	1.262616E-6	-0.040000
399.808255	2.527255E-6	-0.080000
399.885269	3.796610E-6	-0.120000
399.963264	5.072986E-6	-0.160000
400.040316	6.357709E-6	-0.200000
400.117383	7.648269E-6	-0.240000
400.195507	8.950454E-6	-0.280000
400.273569	1.026367E-5	-0.320000
400.351573	1.158723E-5	-0.360000
400.548746	1.292536E-5	-0.400000
400.624751	1.427954E-5	-0.440000
400.702754	1.564877E-5	-0.480000
400.778779	1.704396E-5	-0.520000
400.856834	1.846415E-5	-0.560000
400.932884	1.991965E-5	-0.600000
401.010946	2.142122E-5	-0.640000
401.087950	2.296296E-5	-0.680000
401.163955	2.456813E-5	-0.720000
401.241960	2.623243E-5	-0.760000
401.317965	2.794063E-5	-0.800000
401.394969	2.971180E-5	-0.840000
401.472974	3.153956E-5	-0.880000
401.549980	3.340259E-5	-0.920000
401.626984	3.532082E-5	-0.960000
401.703990	3.727838E-5	-1.000000
401.782995	3.538954E-5	-0.960000
401.861047	3.352750E-5	-0.920000
401.938097	3.168933E-5	-0.880000
402.015146	2.988941E-5	-0.840000
402.094318	2.813365E-5	-0.800000
402.171323	2.641219E-5	-0.760000
402.248328	2.474571E-5	-0.720000
402.325333	2.311798E-5	-0.680000
402.401339	2.155260E-5	-0.640000
402.479342	2.002691E-5	-0.600000
402.555425	1.854036E-5	-0.560000
402.633478	1.709672E-5	-0.520000
402.710537	1.568610E-5	-0.480000
402.788543	1.430086E-5	-0.440000
402.865599	1.294003E-5	-0.400000
402.943604	1.159972E-5	-0.360000
403.020670	1.027238E-5	-0.320000
403.097720	8.956120E-6	-0.280000
403.240730	7.653309E-6	-0.240000
403.317734	6.358110E-6	-0.200000
403.394764	5.073320E-6	-0.160000
403.471854	3.797777E-6	-0.120000
403.549907	2.527348E-6	-0.080000
403.627974	1.262828E-6	-0.040000
403.706979	6.113443E-10	0.000000
403.852988	1.267740E-6	0.040000
404.055001	2.536689E-6	0.080000
404.133006	3.811391E-6	0.120000
404.211010	5.095777E-6	0.160000
404.290016	6.388152E-6	0.200000
404.368056	7.692059E-6	0.240000
404.445097	9.006463E-6	0.280000
404.522208	1.033152E-5	0.320000
404.600225	1.165546E-5	0.360000
404.797238	1.300076E-5	0.400000
404.874242	1.435747E-5	0.440000
404.950248	1.571945E-5	0.480000
405.026253	1.709526E-5	0.520000
405.103258	1.848125E-5	0.560000
405.180288	1.987282E-5	0.600000
405.257293	2.127228E-5	0.640000
405.335298	2.268071E-5	0.680000
405.412382	2.410376E-5	0.720000
405.488392	2.552582E-5	0.760000
405.566438	2.696963E-5	0.800000
405.641455	2.840622E-5	0.840000
405.718512	2.986356E-5	0.880000
405.796575	3.131919E-5	0.920000
405.873627	3.279835E-5	0.960000
405.949668	3.428154E-5	1.000000
406.027721	3.279536E-5	0.960000
406.103824	3.132111E-5	0.920000
406.179873	2.985697E-5	0.880000
406.257975	2.839728E-5	0.840000
406.334030	2.694375E-5	0.800000
406.411094	2.551736E-5	0.760000
406.489099	2.408893E-5	0.720000
406.566104	2.267323E-5	0.680000
406.643159	2.126625E-5	0.640000
406.719336	1.987049E-5	0.600000
406.796341	1.847787E-5	0.560000
406.873348	1.709400E-5	0.520000
406.949407	1.572013E-5	0.480000
407.027414	1.435639E-5	0.440000
407.104446	1.300219E-5	0.400000
407.181451	1.165772E-5	0.360000
407.258459	1.032682E-5	0.320000
407.335504	8.999957E-6	0.280000
407.478651	7.685881E-6	0.240000
407.555683	6.383074E-6	0.200000
407.632743	5.092564E-6	0.160000
407.709858	3.809890E-6	0.120000
407.788144	2.534997E-6	0.080000
407.865149	1.266960E-6	0.040000
407.943229	3.222149E-9	0.000000
408.090313	1.262360E-6	-0.040000
408.292372	2.526927E-6	-0.080000
408.369377	3.796348E-6	-0.120000
408.447429	5.071934E-6	-0.160000
408.525434	6.355929E-6	-0.200000
408.604495	7.651519E-6	-0.240000
408.682499	8.951353E-6	-0.280000
408.759573	1.026754E-5	-0.320000
408.837615	1.159494E-5	-0.360000
409.033805	1.293106E-5	-0.400000
409.111812	1.428832E-5	-0.440000
409.188815	1.565942E-5	-0.480000
409.264820	1.705067E-5	-0.520000
409.343860	1.847294E-5	-0.560000
409.419878	1.993217E-5	-0.600000
409.497941	2.142908E-5	-0.640000
409.573957	2.297749E-5	-0.680000
409.652963	2.457420E-5	-0.720000
409.729968	2.623510E-5	-0.760000
409.806973	2.795437E-5	-0.800000
409.883977	2.972517E-5	-0.840000
409.961982	3.155011E-5	-0.880000
410.038987	3.342493E-5	-0.920000
410.115992	3.533673E-5	-0.960000
410.191997	3.729885E-5	-1.000000
410.269002	3.539973E-5	-0.960000
410.346066	3.353993E-5	-0.920000
410.425134	3.170945E-5	-0.880000
410.501165	2.990600E-5	-0.840000
410.579170	2.814956E-5	-0.800000
410.656174	2.643236E-5	-0.760000
410.732180	2.476121E-5	-0.720000
410.810219	2.314470E-5	-0.680000
410.886250	2.156640E-5	-0.640000
410.963290	2.003481E-5	-0.600000
411.040309	1.855127E-5	-0.560000
411.117325	1.710515E-5	-0.520000
411.193330	1.569094E-5	-0.480000
411.270338	1.430533E-5	-0.440000
411.348376	1.294302E-5	-0.400000
411.425430	1.160127E-5	-0.360000
411.503535	1.027360E-5	-0.320000
411.580666	8.956295E-6	-0.280000
411.722673	7.651767E-6	-0.240000
411.799678	6.358182E-6	-0.200000
411.876683	5.073165E-6	-0.160000
411.953689	3.797227E-6	-0.120000
412.031694	2.527353E-6	-0.080000
412.108698	1.262517E-6	-0.040000
412.186727	6.400872E-10	0.000000
412.332832	1.267812E-6	0.040000
412.534970	2.535978E-6	0.080000
412.612010	3.809845E-6	0.120000
412.690197	5.095295E-6	0.160000
412.768258	6.386820E-6	0.200000
412.846264	7.689293E-6	0.240000
412.923270	9.005415E-6	0.280000
413.000274	1.033033E-5	0.320000
413.077280	1.165867E-5	0.360000
413.274290	1.300334E-5	0.400000
413.351308	1.435896E-5	0.440000
413.428364	1.572398E-5	0.480000
413.505418	1.709940E-5	0.520000
413.581423	1.848207E-5	0.560000
413.659428	1.987462E-5	0.600000
413.736434	2.127981E-5	0.640000
413.812438	2.268422E-5	0.680000
413.890443	2.410736E-5	0.720000
413.967449	2.553198E-5	0.760000
414.044453	2.696032E-5	0.800000
414.122458	2.840712E-5	0.840000
414.198462	2.987073E-5	0.880000
414.276468	3.132508E-5	0.920000
414.353473	3.279752E-5	0.960000
414.430478	3.427904E-5	1.000000
414.507483	3.278856E-5	0.960000
414.584488	3.132137E-5	0.920000
414.661492	2.985422E-5	0.880000
414.738497	2.839308E-5	0.840000
414.815503	2.695815E-5	0.800000
414.892507	2.551618E-5	0.760000
414.970514	2.409353E-5	0.720000
415.047517	2.266861E-5	0.680000
415.124521	2.126028E-5	0.640000
415.201527	1.986494E-5	0.600000
415.279532	1.847425E-5	0.560000
415.357538	1.709523E-5	0.520000
415.435542	1.571931E-5	0.480000
415.512547	1.435678E-5	0.440000
415.589698	1.300257E-5	0.400000
415.668819	1.165975E-5	0.360000
415.745824	1.032635E-5	0.320000
415.822827	9.003904E-6	0.280000
415.963978	7.689872E-6	0.240000
416.041982	6.385963E-6	0.200000
416.120071	5.093264E-6	0.160000
416.198111	3.810500E-6	0.120000
416.277117	2.535246E-6	0.080000
416.354146	1.267225E-6	0.040000
416.432152	3.218444E-9	0.000000
416.578243	1.262247E-6	-0.040000
416.780507	2.526543E-6	-0.080000
416.858510	3.795501E-6	-0.120000
416.936515	5.070702E-6	-0.160000
417.013521	6.354583E-6	-0.200000
417.090527	7.647768E-6	-0.240000
417.167531	8.950610E-6	-0.280000
417.245536	1.026325E-5	-0.320000
417.324541	1.158790E-5	-0.360000
417.521554	1.292864E-5	-0.400000
417.599558	1.428273E-5	-0.440000
417.676564	1.565158E-5	-0.480000
417.753568	1.704358E-5	-0.520000
417.830573	1.846646E-5	-0.560000
417.908578	1.992877E-5	-0.600000
417.985583	2.142828E-5	-0.640000
418.061635	2.297729E-5	-0.680000
418.139688	2.457312E-5	-0.720000
418.216738	2.623098E-5	-0.760000
418.293755	2.795610E-5	-0.800000
418.370760	2.973073E-5	-0.840000
418.447814	3.155215E-5	-0.880000
418.524831	3.343243E-5	-0.920000
418.601861	3.534824E-5	-0.960000
418.677866	3.729452E-5	-1.000000
418.754871	3.540400E-5	-0.960000
418.831896	3.353295E-5	-0.920000
418.909914	3.169393E-5	-0.880000
418.986966	2.989538E-5	-0.840000
419.064018	2.813966E-5	-0.800000
419.141022	2.642177E-5	-0.760000
419.218028	2.474551E-5	-0.720000
419.295032	2.312657E-5	-0.680000
419.374073	2.154801E-5	-0.640000
419.451124	2.002243E-5	-0.600000
419.527161	1.853831E-5	-0.560000
419.605165	1.710031E-5	-0.520000
419.683170	1.569036E-5	-0.480000
419.760175	1.430253E-5	-0.440000
419.837181	1.294305E-5	-0.400000
419.915185	1.159822E-5	-0.360000
419.992189	1.026892E-5	-0.320000
420.069194	8.950647E-6	-0.280000
420.210205	7.649612E-6	-0.240000
420.288209	6.355882E-6	-0.200000
420.365217	5.072850E-6	-0.160000
420.443254	3.796456E-6	-0.120000
420.521308	2.526704E-6	-0.080000
420.598340	1.262367E-6	-0.040000
420.676344	6.427874E-10	0.000000
420.823353	1.267750E-6	0.040000
421.025367	2.535791E-6	0.080000
421.102371	3.810743E-6	0.120000
421.179422	5.092715E-6	0.160000
421.257427	6.385325E-6	0.200000
421.334432	7.688252E-6	0.240000
421.412437	9.002275E-6	0.280000
421.489441	1.032640E-5	0.320000
421.567504	1.165795E-5	0.360000
421.764675	1.300340E-5	0.400000
421.841680	1.435942E-5	0.440000
421.918684	1.572044E-5	0.480000
421.994689	1.709253E-5	0.520000
422.072696	1.847450E-5	0.560000
422.148699	1.986735E-5	0.600000
422.225705	2.127099E-5	0.640000
422.302709	2.268605E-5	0.680000
422.380713	2.410742E-5	0.720000
422.457719	2.553368E-5	0.760000
422.533723	2.696478E-5	0.800000
422.610754	2.841150E-5	0.840000
422.688829	2.986087E-5	0.880000
422.765873	3.131975E-5	0.920000
422.842877	3.279237E-5	0.960000
422.919964	3.427517E-5	1.000000
422.998018	3.279445E-5	0.960000
423.074139	3.131623E-5	0.920000
423.152194	2.986309E-5	0.880000
423.230198	2.840015E-5	0.840000
423.307203	2.695921E-5	0.800000
423.384245	2.552723E-5	0.760000
423.461294	2.409485E-5	0.720000
423.538347	2.267584E-5	0.680000
423.616421	2.127215E-5	0.640000
423.693426	1.986617E-5	0.600000
423.771430	1.847887E-5	0.560000
423.847484	1.709246E-5	0.520000
423.925538	1.571959E-5	0.480000
424.002637	1.436408E-5	0.440000
424.079654	1.300453E-5	0.400000
424.157660	1.166074E-5	0.360000
424.235666	1.032339E-5	0.320000
424.313726	9.002117E-6	0.280000
424.455839	7.686966E-6	0.240000
424.534007	6.385853E-6	0.200000
424.611103	5.093573E-6	0.160000
424.688107	3.810051E-6	0.120000
424.766112	2.536155E-6	0.080000
424.843118	1.267572E-6	0.040000
424.922190	3.207599E-9	0.000000
425.068291	1.262633E-6	-0.040000
425.270304	2.526768E-6	-0.080000
425.347326	3.796116E-6	-0.120000
425.425415	5.072020E-6	-0.160000
425.503531	6.357181E-6	-0.200000
425.581571	7.647840E-6	-0.240000
425.659630	8.953786E-6	-0.280000
425.737685	1.026844E-5	-0.320000
425.816726	1.158829E-5	-0.360000
426.012810	1.292534E-5	-0.400000
426.090815	1.427806E-5	-0.440000
426.167820	1.564680E-5	-0.480000
426.244825	1.703903E-5	-0.520000
426.321830	1.846294E-5	-0.560000
426.399835	1.992175E-5	-0.600000
426.475840	2.142327E-5	-0.640000
426.552848	2.296805E-5	-0.680000
426.629849	2.456710E-5	-0.720000
426.707854	2.622903E-5	-0.760000
426.783859	2.794854E-5	-0.800000
426.860914	2.971833E-5	-0.840000
426.938990	3.154051E-5	-0.880000
427.016043	3.341635E-5	-0.920000
427.093071	3.535162E-5	-0.960000
427.171194	3.729621E-5	-1.000000
427.248198	3.540145E-5	-0.960000
427.324202	3.353394E-5	-0.920000
427.400208	3.169304E-5	-0.880000
427.478212	2.989837E-5	-0.840000
427.554218	2.813953E-5	-0.800000
427.631223	2.642215E-5	-0.760000
427.707276	2.475305E-5	-0.720000
427.784306	2.313239E-5	-0.680000
427.862370	2.156480E-5	-0.640000
427.939427	2.003783E-5	-0.600000
428.015432	1.855083E-5	-0.560000
428.093437	1.710666E-5	-0.520000
428.169498	1.569567E-5	-0.480000
428.246585	1.431107E-5	-0.440000
428.323615	1.294672E-5	-0.400000
428.400659	1.160156E-5	-0.360000
428.477664	1.027003E-5	-0.320000
428.555669	8.954706E-6	-0.280000
428.697785	7.651387E-6	-0.240000
428.775857	6.358080E-6	-0.200000
428.852896	5.073484E-6	-0.160000
428.930960	3.797034E-6	-0.120000
429.009011	2.527845E-6	-0.080000
429.087018	1.263008E-6	-0.040000
429.165023	6.029468E-10	0.000000
429.312034	1.268191E-6	0.040000
429.514045	2.537292E-6	0.080000
429.595089	3.812026E-6	0.120000
429.674166	5.095510E-6	0.160000
429.752171	6.387204E-6	0.200000
429.831246	7.691444E-6	0.240000
429.909252	9.006370E-6	0.280000
429.987256	1.033004E-5	0.320000
430.066262	1.166423E-5	0.360000
430.263282	1.300717E-5	0.400000
430.341279	1.436272E-5	0.440000
430.419285	1.572611E-5	0.480000
430.496290	1.710237E-5	0.520000
430.573295	1.848539E-5	0.560000
430.650299	1.987640E-5	0.600000
430.726305	2.126998E-5	0.640000
430.804309	2.268495E-5	0.680000
430.881313	2.410521E-5	0.720000
430.958319	2.553592E-5	0.760000
431.035324	2.697148E-5	0.800000
431.113328	2.841547E-5	0.840000
431.190334	2.986826E-5	0.880000
431.269339	3.133260E-5	0.920000
431.347342	3.280316E-5	0.960000
431.425347	3.428690E-5	1.000000
431.503402	3.280707E-5	0.960000
431.581431	3.133526E-5	0.920000
431.659437	2.986959E-5	0.880000
431.736445	2.840355E-5	0.840000
431.814448	2.696319E-5	0.800000
431.891452	2.552887E-5	0.760000
431.968457	2.409579E-5	0.720000
432.044462	2.268697E-5	0.680000
432.121467	2.127785E-5	0.640000
432.198471	1.987017E-5	0.600000
432.275538	1.848023E-5	0.560000
432.354591	1.709643E-5	0.520000
432.431630	1.572184E-5	0.480000
432.508681	1.436601E-5	0.440000
432.585733	1.300371E-5	0.400000
432.663822	1.166126E-5	0.360000
432.740895	1.032799E-5	0.320000
432.817957	9.007736E-6	0.280000
432.959966	7.691890E-6	0.240000
433.036971	6.389709E-6	0.200000
433.113975	5.094440E-6	0.160000
433.190981	3.811944E-6	0.120000
433.267986	2.535370E-6	0.080000
433.345990	1.267822E-6	0.040000
433.424042	3.209150E-9	0.000000
433.570135	1.262604E-6	-0.040000
433.773159	2.527416E-6	-0.080000
433.850163	3.797241E-6	-0.120000
433.928169	5.073180E-6	-0.160000
434.006174	6.355774E-6	-0.200000
434.084177	7.649952E-6	-0.240000
434.161187	8.954250E-6	-0.280000
434.238189	1.027015E-5	-0.320000
434.315194	1.159259E-5	-0.360000
434.513206	1.292780E-5	-0.400000
434.594238	1.428478E-5	-0.440000
434.670290	1.565691E-5	-0.480000
434.748330	1.705491E-5	-0.520000
434.825371	1.847395E-5	-0.560000
434.902391	1.993293E-5	-0.600000
434.979435	2.143946E-5	-0.640000
435.056489	2.297974E-5	-0.680000
435.133542	2.458635E-5	-0.720000
435.208547	2.624703E-5	-0.760000
435.285552	2.796770E-5	-0.800000
435.362608	2.973423E-5	-0.840000
435.440661	3.156782E-5	-0.880000
435.516823	3.344108E-5	-0.920000
435.594865	3.536544E-5	-0.960000
435.672869	3.732588E-5	-1.000000
435.748874	3.542352E-5	-0.960000
435.825879	3.355081E-5	-0.920000
435.903884	3.171397E-5	-0.880000
435.980888	2.991226E-5	-0.840000
436.056894	2.814476E-5	-0.800000
436.133898	2.642800E-5	-0.760000
436.211904	2.476011E-5	-0.720000
436.288908	2.313273E-5	-0.680000
436.365993	2.156184E-5	-0.640000
436.442995	2.003549E-5	-0.600000
436.520001	1.855015E-5	-0.560000
436.596005	1.710706E-5	-0.520000
436.674010	1.570052E-5	-0.480000
436.751016	1.430733E-5	-0.440000
436.828020	1.294098E-5	-0.400000
436.906110	1.159799E-5	-0.360000
436.984233	1.026820E-5	-0.320000
437.060294	8.957563E-6	-0.280000
437.202359	7.652098E-6	-0.240000
437.279363	6.360614E-6	-0.200000
437.356382	5.072625E-6	-0.160000
437.433411	3.796483E-6	-0.120000
437.510499	2.527012E-6	-0.080000
437.588503	1.262640E-6	-0.040000
437.667508	5.866018E-10	0.000000
437.813690	1.267440E-6	0.040000
438.015765	2.535584E-6	0.080000
438.092769	3.810295E-6	0.120000
438.169775	5.091965E-6	0.160000
438.246779	6.383289E-6	0.200000
438.324784	7.687823E-6	0.240000
438.402790	9.001389E-6	0.280000
438.480795	1.032473E-5	0.320000
438.558808	1.166167E-5	0.360000
438.755959	1.300735E-5	0.400000
438.833987	1.435643E-5	0.440000
438.911006	1.571641E-5	0.480000
438.988010	1.709480E-5	0.520000
439.064084	1.847563E-5	0.560000
439.142123	1.986476E-5	0.600000
439.218129	2.126640E-5	0.640000
439.295134	2.267551E-5	0.680000
439.373174	2.409606E-5	0.720000
439.449208	2.552281E-5	0.760000
439.527270	2.695865E-5	0.800000
439.603275	2.839752E-5	0.840000
439.680281	2.984762E-5	0.880000
439.757285	3.131482E-5	0.920000
439.833291	3.279043E-5	0.960000
439.911294	3.427168E-5	1.000000
439.988299	3.277540E-5	0.960000
440.064305	3.130332E-5	0.920000
440.141310	2.984250E-5	0.880000
440.219315	2.837974E-5	0.840000
440.295319	2.693849E-5	0.800000
440.373361	2.550423E-5	0.760000
440.449445	2.408484E-5	0.720000
440.527450	2.266999E-5	0.680000
440.603505	2.125460E-5	0.640000
440.680510	1.986072E-5	0.600000
440.757514	1.847198E-5	0.560000
440.833519	1.708388E-5	0.520000
440.911524	1.571478E-5	0.480000
440.988531	1.434961E-5	0.440000
441.065582	1.300009E-5	0.400000
441.142766	1.165456E-5	0.360000
441.219771	1.032289E-5	0.320000
441.296776	8.997688E-6	0.280000
441.437873	7.685688E-6	0.240000
441.515878	6.383766E-6	0.200000
441.593941	5.090434E-6	0.160000
441.671945	3.808306E-6	0.120000
441.748950	2.534364E-6	0.080000
441.826954	1.267084E-6	0.040000
441.906008	3.281685E-9	0.000000
442.052018	1.261525E-6	-0.040000
442.255031	2.526184E-6	-0.080000
442.332035	3.794609E-6	-0.120000
442.410041	5.071244E-6	-0.160000
442.488046	6.355069E-6	-0.200000
442.565063	7.645361E-6	-0.240000
442.642068	8.951429E-6	-0.280000
442.720108	1.026853E-5	-0.320000
442.797126	1.158980E-5	-0.360000
442.994327	1.292927E-5	-0.400000
443.072380	1.428240E-5	-0.440000
443.150435	1.565534E-5	-0.480000
443.226439	1.704948E-5	-0.520000
443.303443	1.847457E-5	-0.560000
443.381506	1.993510E-5	-0.600000
443.457563	2.143583E-5	-0.640000
443.534618	2.297687E-5	-0.680000
443.610742	2.458340E-5	-0.720000
443.688746	2.624746E-5	-0.760000
443.764751	2.796426E-5	-0.800000
443.842793	2.972241E-5	-0.840000
443.919852	3.156200E-5	-0.880000
443.995857	3.343442E-5	-0.920000
444.072863	3.535633E-5	-0.960000
444.149867	3.730870E-5	-1.000000
444.225872	3.540048E-5	-0.960000
444.303934	3.353198E-5	-0.920000
444.380939	3.170777E-5	-0.880000
444.459037	2.991059E-5	-0.840000
444.536077	2.815151E-5	-0.800000
444.612130	2.643560E-5	-0.760000
444.690179	2.476147E-5	-0.720000
444.766359	2.313753E-5	-0.680000
444.843377	2.156333E-5	-0.640000
444.922410	2.003431E-5	-0.600000
444.999411	1.855258E-5	-0.560000
445.076416	1.711058E-5	-0.520000
445.153468	1.569862E-5	-0.480000
445.231472	1.431493E-5	-0.440000
445.308477	1.294891E-5	-0.400000
445.385482	1.160347E-5	-0.360000
445.462521	1.027112E-5	-0.320000
445.540525	8.954061E-6	-0.280000
445.683535	7.651297E-6	-0.240000
445.760569	6.357197E-6	-0.200000
445.838586	5.071973E-6	-0.160000
445.915606	3.796329E-6	-0.120000
445.993624	2.527511E-6	-0.080000
446.070628	1.262557E-6	-0.040000
446.149633	6.002477E-10	0.000000
446.295643	1.267603E-6	0.040000
446.498656	2.535174E-6	0.080000
446.576661	3.810095E-6	0.120000
446.654665	5.092381E-6	0.160000
446.731669	6.386567E-6	0.200000
446.809676	7.689615E-6	0.240000
446.887681	9.001543E-6	0.280000
446.964685	1.032766E-5	0.320000
447.043690	1.165641E-5	0.360000
447.239702	1.300083E-5	0.400000
447.317707	1.436313E-5	0.440000
447.395713	1.573139E-5	0.480000
447.473718	1.711071E-5	0.520000
447.549844	1.848315E-5	0.560000
447.627848	1.987950E-5	0.600000
447.703854	2.127715E-5	0.640000
447.780859	2.268343E-5	0.680000
447.857863	2.410602E-5	0.720000
447.934928	2.552696E-5	0.760000
448.010960	2.696469E-5	0.800000
448.087977	2.841267E-5	0.840000
448.165059	2.986496E-5	0.880000
448.241063	3.132203E-5	0.920000
448.319080	3.280320E-5	0.960000
448.397085	3.428815E-5	1.000000
448.473166	3.280329E-5	0.960000
448.550169	3.132538E-5	0.920000
448.627226	2.986307E-5	0.880000
448.705304	2.840791E-5	0.840000
448.780320	2.694775E-5	0.800000
448.859325	2.552766E-5	0.760000
448.937331	2.408861E-5	0.720000
449.014336	2.267372E-5	0.680000
449.092341	2.126604E-5	0.640000
449.168345	1.986216E-5	0.600000
449.246373	1.847264E-5	0.560000
449.323392	1.709171E-5	0.520000
449.398454	1.572172E-5	0.480000
449.476534	1.435941E-5	0.440000
449.553540	1.300279E-5	0.400000
449.630545	1.165919E-5	0.360000
449.708572	1.032719E-5	0.320000
449.785577	9.003957E-6	0.280000
449.927627	7.689785E-6	0.240000
450.004754	6.384521E-6	0.200000
450.081757	5.092617E-6	0.160000
450.158764	3.810944E-6	0.120000
450.236767	2.537368E-6	0.080000
450.314772	1.268042E-6	0.040000
450.391778	3.113722E-9	0.000000
450.538787	1.262686E-6	-0.040000
450.740004	2.527828E-6	-0.080000
450.818032	3.798594E-6	-0.120000
450.897085	5.075980E-6	-0.160000
450.974090	6.358371E-6	-0.200000
451.052094	7.652333E-6	-0.240000
451.129099	8.954968E-6	-0.280000
451.206117	1.026502E-5	-0.320000
451.284145	1.158818E-5	-0.360000
451.480349	1.292567E-5	-0.400000
451.558353	1.427901E-5	-0.440000
451.635359	1.564669E-5	-0.480000
451.712364	1.704015E-5	-0.520000
451.790370	1.847155E-5	-0.560000
451.867374	1.992660E-5	-0.600000
451.944379	2.141123E-5	-0.640000
452.021398	2.296186E-5	-0.680000
452.098585	2.458187E-5	-0.720000
452.176645	2.623475E-5	-0.760000
452.254716	2.795886E-5	-0.800000
452.331721	2.972375E-5	-0.840000
452.408726	3.153867E-5	-0.880000
452.486732	3.340920E-5	-0.920000
452.561750	3.532934E-5	-0.960000
452.639754	3.728894E-5	-1.000000
452.715862	3.540025E-5	-0.960000
452.793891	3.352951E-5	-0.920000
452.870896	3.169553E-5	-0.880000
452.947901	2.989660E-5	-0.840000
453.024906	2.813279E-5	-0.800000
453.102911	2.641543E-5	-0.760000
453.178915	2.475013E-5	-0.720000
453.256920	2.312633E-5	-0.680000
453.333926	2.155845E-5	-0.640000
453.409930	2.002789E-5	-0.600000
453.487935	1.854494E-5	-0.560000
453.564941	1.709664E-5	-0.520000
453.641003	1.568458E-5	-0.480000
453.719018	1.430207E-5	-0.440000
453.796024	1.293743E-5	-0.400000
453.873053	1.159074E-5	-0.360000
453.950058	1.026457E-5	-0.320000
454.027063	8.953593E-6	-0.280000
454.168122	7.652230E-6	-0.240000
454.246187	6.357369E-6	-0.200000
454.324243	5.074351E-6	-0.160000
454.401289	3.797814E-6	-0.120000
454.479356	2.527427E-6	-0.080000
454.557374	1.262817E-6	-0.040000
454.634415	5.991480E-10	0.000000
454.781425	1.267536E-6	0.040000
454.982438	2.537048E-6	0.080000
455.060444	3.811550E-6	0.120000
455.138447	5.094559E-6	0.160000
455.216452	6.388085E-6	0.200000
455.293457	7.691679E-6	0.240000
455.371486	9.007781E-6	0.280000
455.448530	1.032846E-5	0.320000
455.525547	1.166056E-5	0.360000
455.722606	1.300583E-5	0.400000
455.799614	1.436325E-5	0.440000
455.876616	1.572644E-5	0.480000
455.953621	1.709903E-5	0.520000
456.029625	1.847922E-5	0.560000
456.107633	1.987414E-5	0.600000
456.183636	2.127619E-5	0.640000
456.260640	2.267758E-5	0.680000
456.338690	2.410201E-5	0.720000
456.414736	2.553065E-5	0.760000
456.491739	2.696728E-5	0.800000
456.569805	2.840922E-5	0.840000
456.646805	2.986778E-5	0.880000
456.723810	3.133045E-5	0.920000
456.799815	3.279933E-5	0.960000
456.877866	3.429027E-5	1.000000
456.954935	3.279834E-5	0.960000
457.031940	3.131881E-5	0.920000
457.108944	2.985986E-5	0.880000
457.185950	2.840808E-5	0.840000
457.261956	2.696545E-5	0.800000
457.339959	2.551978E-5	0.760000
457.415965	2.409513E-5	0.720000
457.493969	2.267652E-5	0.680000
457.569974	2.126795E-5	0.640000
457.648039	1.986937E-5	0.600000
457.725043	1.848333E-5	0.560000
457.802049	1.709451E-5	0.520000
457.879054	1.572308E-5	0.480000
457.956059	1.436624E-5	0.440000
458.033064	1.301133E-5	0.400000
458.110113	1.166187E-5	0.360000
458.187166	1.032974E-5	0.320000
458.265207	9.007255E-6	0.280000
458.408228	7.690793E-6	0.240000
458.485234	6.387451E-6	0.200000
458.562253	5.094410E-6	0.160000
458.639341	3.810986E-6	0.120000
458.717391	2.536883E-6	0.080000
458.796443	1.268539E-6	0.040000
458.874448	3.251288E-9	0.000000
459.020516	1.262513E-6	-0.040000
459.221658	2.527006E-6	-0.080000
459.299663	3.796839E-6	-0.120000
459.377728	5.073199E-6	-0.160000
459.455733	6.356060E-6	-0.200000
459.533762	7.649139E-6	-0.240000
459.611853	8.952209E-6	-0.280000
459.688858	1.026646E-5	-0.320000
459.766862	1.158982E-5	-0.360000
459.964029	1.293002E-5	-0.400000
460.042034	1.428596E-5	-0.440000
460.120039	1.565306E-5	-0.480000
460.197043	1.704571E-5	-0.520000
460.275049	1.846860E-5	-0.560000
460.352054	1.992403E-5	-0.600000
460.429059	2.142353E-5	-0.640000
460.506064	2.297317E-5	-0.680000
460.583068	2.458028E-5	-0.720000
460.660074	2.624590E-5	-0.760000
460.736078	2.796038E-5	-0.800000
460.813134	2.973196E-5	-0.840000
460.891207	3.155004E-5	-0.880000
460.967212	3.342634E-5	-0.920000
461.045218	3.534861E-5	-0.960000
